Tektronix:  IConnect
Version 6.1.0

File Created: May 25, 2017 at 07:06PM
Created By: Tek_Local_Admin

Format: Waveform
Type: Frequency Domain

== Begin Header ==

Type: Scattering

Data Type: dBMagnitude/Phase
Samples: 5001
Step Size: 4meg
First Step: 0
Reference Impedance: 50

== End Header ==

Data:
-1.3012	0
-1.2842	-21.911
-1.2456	-44.092
-1.2266	-66.659
-1.2698	-89.517
-1.4017	-112.42
-1.6242	-135.04
-1.9126	-157.08
-2.2132	-178.32
-2.4511	161.22
-2.5605	141.14
-2.5299	120.8
-2.4192	99.631
-2.3287	77.47
-2.3516	54.579
-2.5457	31.521
-2.9059	8.9823
-3.3688	-12.403
-3.8095	-32.297
-4.0736	-51.011
-4.0719	-69.607
-3.8601	-89.3
-3.5991	-110.67
-3.4513	-133.51
-3.5224	-157.12
-3.8494	179.42
-4.3962	157.08
-5.0413	136.67
-5.5791	118.43
-5.8037	101.47
-5.6699	84.035
-5.3375	64.834
-5.0206	43.732
-4.8633	21.37
-4.9207	-1.363
-5.1726	-23.606
-5.5326	-44.704
-5.8671	-64.457
-6.0492	-83.309
-6.0356	-102.16
-5.891	-121.81
-5.7291	-142.47
-5.6403	-163.87
-5.6653	174.49
-5.7921	153.07
-5.9696	132.2
-6.1316	111.92
-6.2243	91.966
-6.2354	71.928
-6.2002	51.464
-6.1765	30.509
-6.2101	9.2777
-6.3113	-11.88
-6.4522	-32.664
-6.5815	-52.977
-6.6505	-72.984
-6.6405	-93.038
-6.5756	-113.5
-6.5102	-134.54
-6.4993	-156.09
-6.5859	-177.88
-6.7831	160.5
-7.0639	139.49
-7.359	119.37
-7.5778	100.07
-7.6534	81.11
-7.5855	61.828
-7.4393	41.751
-7.3031	20.801
-7.2467	-0.76609
-7.3048	-22.536
-7.4778	-44.062
-7.7338	-64.953
-8.0047	-85.002
-8.2148	-104.29
-8.3091	-123.2
-8.2814	-142.26
-8.1725	-161.86
-8.0419	177.86
-7.9402	157
-7.8974	135.78
-7.9244	114.45
-8.0151	93.268
-8.1467	72.438
-8.2819	52.074
-8.3798	32.122
-8.4169	12.365
-8.3898	-7.4864
-8.3254	-27.644
-8.2613	-48.167
-8.2283	-68.965
-8.2401	-89.872
-8.2916	-110.72
-8.3622	-131.39
-8.4249	-151.92
-8.4623	-172.41
-8.4779	166.96
-8.4948	146.12
-8.5395	125.15
-8.6206	104.29
-8.7209	83.766
-8.7942	63.619
-8.8006	43.657
-8.7339	23.51
-8.6316	2.8553
-8.556	-18.398
-8.5641	-40.068
-8.6852	-61.778
-8.9077	-83.082
-9.1756	-103.64
-9.4024	-123.4
-9.5127	-142.76
-9.4931	-162.35
-9.4035	177.32
-9.3392	156.19
-9.3702	134.59
-9.5181	113.05
-9.7548	92.082
-10.011	71.98
-10.198	52.686
-10.254	33.744
-10.178	14.525
-10.033	-5.4086
-9.8983	-26.114
-9.8348	-47.331
-9.8612	-68.655
-9.9564	-89.73
-10.074	-110.39
-10.173	-130.71
-10.231	-150.89
-10.257	-171.15
-10.271	168.45
-10.292	147.94
-10.327	127.38
-10.377	106.85
-10.438	86.365
-10.503	65.968
-10.565	45.669
-10.613	25.447
-10.638	5.2505
-10.64	-14.991
-10.623	-35.333
-10.598	-55.802
-10.576	-76.393
-10.564	-97.072
-10.569	-117.78
-10.59	-138.45
-10.618	-159.07
-10.649	-179.69
-10.683	159.6
-10.735	138.75
-10.825	117.8
-10.957	96.913
-11.116	76.271
-11.267	55.966
-11.372	35.924
-11.407	15.92
-11.385	-4.3129
-11.337	-24.931
-11.31	-45.9
-11.339	-67.012
-11.433	-87.965
-11.57	-108.49
-11.703	-128.49
-11.786	-148.16
-11.803	-167.86
-11.784	172.08
-11.775	151.56
-11.815	130.75
-11.909	109.92
-12.034	89.28
-12.155	68.904
-12.24	48.684
-12.281	28.44
-12.296	8.0361
-12.315	-12.533
-12.361	-33.134
-12.439	-53.558
-12.525	-73.645
-12.582	-93.426
-12.582	-113.16
-12.537	-133.2
-12.492	-153.73
-12.499	-174.66
-12.584	164.32
-12.734	143.6
-12.892	123.39
-13	103.62
-13.022	84.011
-12.964	64.196
-12.869	43.966
-12.784	23.324
-12.746	2.4387
-12.767	-18.449
-12.834	-39.124
-12.916	-59.498
-12.981	-79.642
-13.013	-99.74
-13.017	-119.95
-13.01	-140.34
-13	-160.87
-12.986	178.5
-12.967	157.76
-12.956	136.88
-12.973	115.89
-13.038	94.942
-13.153	74.255
-13.293	53.997
-13.419	34.183
-13.494	14.624
-13.501	-5.0159
-13.46	-25.062
-13.411	-45.68
-13.4	-66.815
-13.455	-88.221
-13.572	-109.56
-13.722	-130.56
-13.859	-151.07
-13.944	-171.2
-13.967	168.87
-13.94	148.97
-13.886	129.05
-13.82	109.09
-13.747	89.05
-13.679	68.805
-13.64	48.254
-13.663	27.405
-13.775	6.4353
-13.977	-14.349
-14.232	-34.622
-14.467	-54.196
-14.592	-73.225
-14.551	-92.256
-14.363	-111.97
-14.119	-132.75
-13.926	-154.52
-13.861	-176.81
-13.949	160.99
-14.16	139.45
-14.42	118.89
-14.636	99.265
-14.738	80.112
-14.719	60.8
-14.625	40.882
-14.524	20.283
-14.462	-0.77782
-14.45	-21.96
-14.467	-42.994
-14.477	-63.805
-14.463	-84.515
-14.438	-105.28
-14.439	-126.13
-14.494	-146.88
-14.599	-167.3
-14.717	172.72
-14.804	153.02
-14.848	133.25
-14.866	113.08
-14.899	92.408
-14.979	71.37
-15.11	50.221
-15.273	29.216
-15.429	8.5229
-15.534	-11.856
-15.56	-32.097
-15.556	-52.458
-15.547	-73.112
-15.538	-94.035
-15.534	-115.02
-15.544	-135.85
-15.573	-156.43
-15.617	-176.83
-15.669	162.81
-15.721	142.47
-15.765	122.28
-15.795	102.38
-15.806	82.695
-15.79	62.935
-15.747	42.725
-15.695	21.882
-15.653	0.53592
-15.637	-20.962
-15.665	-42.199
-15.74	-62.818
-15.834	-82.631
-15.91	-101.77
-15.939	-120.71
-15.868	-140.04
-15.778	-160.15
-15.741	179
-15.795	157.72
-15.928	136.43
-16.088	115.37
-16.22	94.525
-16.297	73.7
-16.332	52.713
-16.362	31.587
-16.413	10.541
-16.487	-10.15
-16.553	-30.344
-16.571	-50.154
-16.529	-69.922
-16.456	-90.02
-16.412	-110.61
-16.457	-131.52
-16.61	-152.35
-16.837	-172.63
-17.044	167.81
-17.135	148.67
-17.072	129.23
-16.913	108.83
-16.768	87.346
-16.728	65.151
-16.83	42.886
-17.049	21.184
-17.312	0.47166
-17.522	-19.215
-17.602	-38.296
-17.542	-57.413
-17.398	-77.022
-17.244	-97.18
-17.122	-117.66
-17.032	-138.18
-16.946	-158.7
-16.849	-179.36
-16.762	159.61
-16.742	138.16
-16.844	116.58
-17.078	95.428
-17.39	75.259
-17.663	56.304
-17.764	38.126
-17.646	19.713
-17.385	0.13867
-17.121	-20.866
-16.968	-42.933
-16.975	-65.399
-17.125	-87.606
-17.355	-109.11
-17.582	-129.82
-17.742	-150.02
-17.831	-170.09
-17.882	169.7
-17.931	149.43
-17.982	129.3
-17.998	109.4
-17.94	89.504
-17.802	69.164
-17.639	47.992
-17.539	25.936
-17.58	3.3381
-17.804	-19.161
-18.191	-40.762
-18.639	-60.766
-18.973	-79.049
-19.034	-96.485
-18.816	-114.56
-18.476	-134.26
-18.203	-155.57
-18.119	-177.85
-18.144	159.75
-18.213	137.97
-18.308	117.31
-18.404	97.799
-18.475	78.98
-18.501	60.119
-18.508	40.673
-18.528	20.545
-18.56	-0.029026
-18.601	-20.749
-18.65	-41.452
-18.703	-62.145
-18.756	-82.885
-18.806	-103.65
-18.849	-124.34
-18.882	-144.9
-18.903	-165.41
-18.91	173.91
-18.932	152.9
-19.016	131.58
-19.174	110.16
-19.384	88.893
-19.6	67.935
-19.769	47.262
-19.855	26.687
-19.855	5.9794
-19.8	-14.979
-19.733	-36.118
-19.69	-57.203
-19.678	-77.93
-19.668	-98.104
-19.613	-117.85
-19.495	-137.64
-19.357	-158.01
-19.295	-179.18
-19.401	159.16
-19.712	137.69
-20.173	117.25
-20.631	98.34
-20.878	80.593
-20.804	62.657
-20.497	43.133
-20.16	21.609
-19.968	-1.3525
-20.01	-24.741
-20.29	-47.437
-20.717	-68.434
-21.102	-87.285
-21.235	-104.71
-21.054	-122.41
-20.714	-141.79
-20.437	-163
-20.366	174.69
-20.521	152.27
-20.835	130.56
-21.175	110
-21.392	90.414
-21.4	71.038
-21.23	51.018
-20.994	29.999
-20.804	8.2005
-20.724	-13.84
-20.76	-35.55
-20.868	-56.553
-20.985	-76.821
-21.064	-96.655
-21.108	-116.45
-21.137	-136.42
-21.174	-156.6
-21.213	-176.91
-21.239	162.6
-21.248	141.85
-21.256	120.79
-21.289	99.564
-21.359	78.416
-21.455	57.607
-21.555	37.265
-21.635	17.354
-21.682	-2.3074
-21.709	-21.955
-21.745	-41.773
-21.824	-61.816
-21.965	-81.996
-22.165	-102.16
-22.391	-122.23
-22.606	-142.34
-22.801	-162.71
-23	176.58
-23.234	155.8
-23.489	135.52
-23.671	116.17
-23.648	97.565
-23.358	78.713
-22.889	58.542
-22.43	36.667
-22.148	13.545
-22.13	-9.9187
-22.374	-32.719
-22.789	-53.961
-23.191	-73.193
-23.362	-90.983
-23.207	-108.94
-22.857	-128.52
-22.538	-149.99
-22.418	-172.59
-22.554	164.87
-22.882	143.6
-23.213	124.26
-23.312	106.33
-23.085	88.071
-22.683	67.926
-22.352	45.656
-22.271	22.077
-22.503	-1.5574
-22.997	-23.922
-23.582	-43.95
-23.979	-61.505
-23.956	-78.049
-23.556	-95.774
-23.044	-115.71
-22.664	-137.4
-22.525	-159.86
-22.635	177.85
-22.933	156.37
-23.313	135.95
-23.663	116.38
-23.92	97.02
-24.088	77.244
-24.214	56.753
-24.34	35.649
-24.473	14.259
-24.585	-7.0998
-24.642	-28.295
-24.642	-49.34
-24.617	-70.192
-24.602	-90.592
-24.588	-110.17
-24.502	-128.86
-24.259	-147.28
-23.867	-166.53
-23.449	172.54
-23.174	149.76
-23.172	125.68
-23.5	101.23
-24.132	77.537
-24.954	55.725
-25.738	36.65
-26.168	20.038
-26.046	3.9147
-25.512	-13.949
-24.883	-34.205
-24.407	-56.194
-24.195	-78.874
-24.273	-101.31
-24.604	-122.74
-25.098	-142.63
-25.615	-160.74
-25.985	-177.39
-26.068	166.47
-25.834	149.47
-25.377	130.57
-24.852	109.48
-24.393	86.621
-24.081	62.764
-23.942	38.792
-23.961	15.512
-24.062	-6.4783
-24.13	-27.019
-24.049	-46.659
-23.793	-66.517
-23.462	-87.586
-23.219	-110.16
-23.204	-133.82
-23.491	-157.68
-24.065	179.41
-24.81	158.54
-25.501	140.3
-25.881	124.05
-25.856	108.01
-25.584	90.712
-25.29	72.05
-25.088	52.738
-24.971	33.391
-24.877	14.089
-24.767	-5.6334
-24.678	-26.401
-24.707	-48.507
-24.959	-71.692
-25.498	-95.114
-26.294	-117.38
-27.13	-136.93
-27.569	-153.44
-27.256	-169.38
-26.366	171.84
-25.389	149.39
-24.685	124.56
-24.411	99.1
-24.585	74.578
-25.128	52.333
-25.834	33.418
-26.343	17.753
-26.353	3.0186
-25.96	-13.897
-25.512	-34.176
-25.271	-57.185
-25.333	-81.727
-25.681	-106.6
-26.223	-130.77
-26.813	-153.52
-27.296	-174.66
-27.571	165.51
-27.613	146.52
-27.446	127.99
-27.095	109.59
-26.59	90.836
-26	71.134
-25.441	50.123
-25.036	27.888
-24.875	4.8838
-24.994	-18.245
-25.387	-40.76
-25.983	-61.865
-26.62	-80.962
-27.059	-98.3
-27.133	-115.31
-26.889	-133.74
-26.524	-154.39
-26.214	-176.92
-26.042	159.46
-26.015	135.58
-26.098	112.04
-26.247	89.28
-26.421	67.629
-26.572	47.322
-26.629	28.414
-26.514	10.554
-26.19	-7.0995
-25.713	-25.553
-25.221	-45.441
-24.869	-66.797
-24.771	-89.203
-24.989	-112.01
-25.531	-134.45
-26.341	-155.65
-27.27	-174.78
-28.062	168.4
-28.455	152.87
-28.377	136.76
-27.981	118.78
-27.457	98.942
-26.916	77.762
-26.403	55.643
-25.964	32.697
-25.672	8.9557
-25.614	-15.405
-25.867	-39.972
-26.475	-64.075
-27.431	-86.721
-28.613	-106.55
-29.662	-122.41
-30.031	-135.51
-29.537	-150.11
-28.633	-168.98
-27.806	168.63
-27.29	144.75
-27.122	121.29
-27.229	99.682
-27.431	80.686
-27.494	63.894
-27.284	47.533
-26.907	29.645
-26.6	9.4044
-26.544	-12.96
-26.81	-36.845
-27.369	-61.664
-28.118	-86.951
-28.904	-112.31
-29.568	-137.29
-29.992	-161.3
-30.125	176.27
-29.969	155.71
-29.552	136.76
-28.947	118.57
-28.288	100.21
-27.744	81.211
-27.451	61.739
-27.472	42.376
-27.761	23.85
-28.157	6.6061
-28.413	-9.8607
-28.363	-27.305
-28.07	-47.595
-27.735	-71.319
-27.527	-97.757
-27.544	-125.5
-27.846	-152.86
-28.448	-177.99
-29.244	160.84
-29.939	144.42
-30.163	131.18
-29.89	117.58
-29.501	101.53
-29.337	83.529
-29.477	65.006
-29.771	46.895
-29.966	28.816
-29.917	9.1173
-29.708	-13.714
-29.53	-39.727
-29.547	-67.656
-29.879	-95.518
-30.599	-120.84
-31.608	-140.57
-32.307	-152.41
-31.771	-160.37
-30.248	-173.2
-28.784	167.07
-27.912	142.83
-27.75	116.18
-28.283	88.444
-29.448	60.649
-31.123	34.067
-33.012	10.539
-34.506	-8.0928
-34.814	-23.127
-33.865	-39.44
-32.401	-59.09
-31.025	-80.608
-29.978	-102.22
-29.296	-122.85
-28.93	-142.01
-28.795	-159.6
-28.79	-175.78
-28.812	168.96
-28.781	153.76
-28.686	137.56
-28.577	119.42
-28.535	98.816
-28.61	75.682
-28.791	50.291
-29.011	23.223
-29.182	-4.643
-29.241	-32.258
-29.188	-58.742
-29.08	-83.64
-29.012	-106.86
-29.083	-128.31
-29.348	-147.61
-29.75	-164.08
-30.055	-177.42
-29.944	170.89
-29.373	157.72
-28.669	140.92
-28.194	120.54
-28.144	97.633
-28.583	73.32
-29.493	48.604
-30.777	24.501
-32.2	1.9373
-33.364	-18.961
-33.887	-39.651
-33.724	-62.098
-33.15	-86.632
-32.49	-111.9
-31.94	-136.14
-31.536	-158.11
-31.204	-177.47
-30.857	165.21
-30.491	148.96
-30.184	133.22
-29.981	118.16
-29.803	104.08
-29.486	90.401
-28.964	75.421
-28.388	57.493
-28.004	36.111
-27.995	11.71
-28.452	-14.963
-29.414	-42.985
-30.889	-70.891
-32.82	-95.935
-34.825	-113.67
-35.691	-121.89
-34.487	-129.89
-32.417	-146
-30.626	-168.03
-29.427	167.42
-28.812	142.27
-28.69	117.22
-28.978	92.204
-29.646	66.765
-30.716	40.444
-32.229	13.112
-34.192	-14.811
-36.562	-41.661
-39.118	-63.067
-40.764	-72.63
-39.616	-77.098
-36.905	-91.441
-34.562	-113.37
-33.077	-137.71
-32.495	-161.65
-32.774	176.91
-33.721	160.51
-34.699	151.36
-34.704	146.27
-33.744	136.73
-32.746	119.9
-32.215	97.781
-32.199	72.414
-32.548	45.117
-33.024	16.853
-33.392	-11.403
-33.526	-38.628
-33.459	-64.016
-33.325	-87.135
-33.238	-107.82
-33.227	-126.17
-33.253	-142.78
-33.309	-158.8
-33.519	-175.33
-34.092	167.5
-35.199	150.91
-36.78	137.52
-38.172	129.78
-38.255	123.35
-37.204	108.39
-36.037	83.151
-35.134	51.297
-34.494	16.89
-34.132	-16.487
-34.122	-45.913
-34.381	-68.951
-34.391	-84.668
-33.484	-97.338
-31.918	-113.9
-30.497	-136.06
-29.674	-162.07
-29.603	170.05
-30.34	142.07
-31.898	116.19
-34.149	95.923
-36.308	85.733
-36.749	81.697
-35.772	70.468
-35.034	51.292
-35.166	30.128
-36.1	12.991
-36.893	5.0905
-35.899	0.6012
-33.732	-13.744
-31.905	-37.893
-30.858	-67.612
-30.58	-100.37
-30.982	-134.67
-31.97	-169.15
-33.457	158.17
-35.281	130.62
-36.854	112.29
-36.945	101.35
-35.536	87.045
-33.987	66.062
-33.011	41.654
-32.739	16.722
-33.101	-6.7835
-33.908	-27.437
-34.825	-44.753
-35.52	-60.106
-35.956	-75.88
-36.339	-92.962
-36.756	-110.34
-36.987	-127.01
-36.711	-144.17
-35.967	-164.53
-35.16	170.78
-34.699	142.77
-34.871	113.39
-35.924	85.163
-38.073	62.869
-40.656	57.781
-39.552	67.082
-35.846	56.264
-32.975	31.232
-31.191	1.2738
-30.325	-30.041
-30.287	-60.755
-31.027	-88.914
-32.398	-111.84
-33.831	-126.56
-34.176	-135.08
-33.242	-147.31
-32.21	-167.26
-31.8	168.12
-32.136	142.23
-33.083	117.79
-34.26	97.189
-34.916	80.933
-34.44	64.466
-33.243	42.721
-32.078	16.103
-31.344	-12.604
-31.206	-40.907
-31.736	-66.561
-32.854	-86.821
-34.021	-98.763
-34.112	-104.64
-32.997	-114.25
-31.808	-131.28
-31.213	-153.08
-31.339	-176.79
-32.101	159.5
-33.296	137.16
-34.568	116.87
-35.475	97.837
-35.77	77.814
-35.583	55.425
-35.185	31.496
-34.762	7.8684
-34.361	-13.995
-33.925	-33.7
-33.388	-52.042
-32.792	-70.299
-32.281	-89.198
-31.974	-108.58
-31.879	-127.81
-31.886	-146.45
-31.87	-164.74
-31.827	176.34
-31.775	155.83
-31.733	133.55
-31.717	110.14
-31.731	86.631
-31.771	64.075
-31.826	43.408
-31.881	25.058
-31.922	8.5141
-31.937	-7.5305
-31.93	-24.21
-31.911	-41.827
-31.881	-60.23
-31.845	-79.589
-31.807	-100.69
-31.771	-124.34
-31.742	-150.63
-31.723	-178.75
-31.717	152.6
-31.945	124.72
-32.573	98.911
-33.418	76.753
-34.167	60.192
-34.471	49.298
-34.157	38.663
-33.562	22.596
-33.28	0.6925
-33.66	-25.398
-34.794	-54.17
-36.629	-84.19
-38.958	-113.37
-41.173	-137.16
-42.15	-146.33
-41.656	-146.9
-38.937	-162.84
-36.72	170.94
-35.464	142.2
-35.187	114.36
-35.876	89.964
-37.31	72.791
-38.372	66.225
-37.546	61.72
-35.738	47
-34.274	23.204
-33.463	-5.6023
-33.247	-36.583
-33.493	-67.411
-34.039	-95.863
-34.668	-120.04
-35.058	-139.4
-34.95	-156.02
-34.516	-173.08
-34.21	168.45
-34.338	150.03
-34.873	134.07
-35.338	122.17
-35.056	111.41
-34.106	95.601
-33.173	72.482
-32.686	43.326
-32.781	9.9583
-33.518	-25.645
-35.032	-60.86
-37.682	-91.2
-41.835	-104.32
-42.609	-81.413
-37.761	-83.431
-34.453	-107.15
-32.923	-136.13
-32.895	-165.83
-34.405	166.14
-37.885	144.59
-43.166	151.07
-40.915	-179.99
-36.845	164.93
-35.003	134.85
-34.628	98.87
-35.131	58.587
-35.934	15.181
-36.559	-27.691
-36.919	-64.635
-37.05	-92.396
-36.665	-112.35
-35.653	-130.27
-34.562	-150.52
-33.99	-172.81
-34.204	165.59
-35.106	148.61
-35.911	140.24
-35.181	136.23
-33.212	124.73
-31.443	104.59
-30.442	80.295
-30.266	55.388
-30.851	32.637
-31.957	15.199
-32.794	5.4143
-32.324	-1.8765
-30.99	-15.628
-29.868	-36.483
-29.402	-61.5
-29.694	-88.333
-30.747	-115
-32.46	-139.15
-34.445	-157.92
-35.76	-170.41
-35.613	177.18
-34.582	158.45
-33.51	134.43
-32.69	108.34
-32.128	82.237
-31.772	56.829
-31.61	31.963
-31.708	7.2703
-32.195	-17.283
-33.229	-40.981
-34.959	-61.655
-37.222	-74.113
-38.358	-73.546
-36.632	-75.638
-34.206	-92.399
-32.453	-117.59
-31.522	-146.15
-31.385	-175.25
-31.995	157.49
-33.176	134.69
-34.377	118.5
-34.694	106.47
-34.018	90.684
-33.22	67.486
-32.863	38.564
-33.023	6.3368
-33.568	-26.922
-34.315	-58.329
-34.997	-84.269
-35.07	-102.86
-34.069	-117.86
-32.436	-135.02
-30.974	-155.43
-30.135	-177.21
-30.055	162.1
-30.613	145.06
-31.346	133.51
-31.579	125.72
-31.199	116.18
-30.858	101.94
-31.142	84.542
-32.266	67.079
-34.111	53.058
-36.013	45.094
-36.918	39.344
-36.961	26.077
-37.142	2.1586
-37.729	-30.747
-38.257	-69.618
-38.242	-108.22
-37.81	-140.02
-37.169	-163.25
-36.221	179.29
-35.028	162.84
-33.995	144.63
-33.503	124.87
-33.711	105.34
-34.488	88.282
-35.37	74.887
-35.751	62.761
-35.585	46.435
-35.404	22.982
-35.577	-6.9574
-36.102	-41.445
-36.831	-77.712
-37.76	-111.87
-39.069	-138.84
-40.455	-151.76
-39.852	-150.87
-36.863	-156.54
-33.853	-173.72
-31.615	163.47
-30.147	138.33
-29.355	112.38
-29.157	86.438
-29.506	61.12
-30.398	37.198
-31.846	16.253
-33.681	1.4782
-34.991	-3.9798
-34.44	-6.7615
-32.738	-18.181
-31.248	-37.841
-30.439	-61.721
-30.404	-86.971
-31.147	-111.29
-32.557	-132.09
-34.162	-146.58
-34.955	-156.02
-34.601	-169
-34.033	169.36
-33.955	140.26
-34.505	105.53
-35.535	66.316
-36.774	24.23
-38.061	-17.629
-39.577	-55.538
-41.793	-86.475
-45.383	-105.98
-50.483	-93.137
-46.906	-49.831
-40.473	-54.105
-35.932	-74.311
-32.672	-100.41
-30.385	-129.82
-28.938	-161.4
-28.293	165.58
-28.485	131.85
-29.63	98.404
-32.004	67.123
-36.232	43.961
-41.446	56.392
-37.61	77.243
-33.605	55.815
-31.76	23.362
-31.429	-13.055
-32.352	-52.637
-34.454	-96.891
-37.467	-149.41
-40.182	148.18
-41.747	88.503
-44.564	44.319
-53.486	45.003
-45.249	109.55
-38.78	86.931
-36.019	59.809
-35.326	35.263
-36.18	17.259
-37.766	12.102
-37.732	19.178
-35.721	18.945
-33.979	8.683
-33.037	-4.5292
-32.551	-17.322
-32.129	-30.22
-31.759	-45.734
-31.812	-65.164
-32.702	-87.746
-34.801	-111.39
-38.53	-131.2
-43.334	-131.14
-42.636	-116.79
-39.334	-138.43
-36.995	-178.28
-35.172	136.44
-33.798	91.491
-33.137	48.619
-33.411	7.4666
-34.718	-32.828
-37.012	-72.598
-39.846	-109.55
-41.655	-135.92
-39.932	-153.06
-36.045	-177.09
-32.637	152.53
-30.463	120.04
-29.677	87.479
-30.454	56.064
-33.365	27.886
-40.557	16.005
-41.208	91.026
-33.965	81.536
-31.41	54.183
-31.47	24.209
-34.131	-5.6937
-42.028	-29.845
-44.622	87.192
-35.482	65.909
-32.789	34.316
-32.759	0.4678
-34.912	-36.183
-39.7	-80.847
-46.689	-161.47
-45.049	104.12
-44.682	54.91
-51.899	10.579
-49.559	-177.76
-40.677	146.67
-37.467	120.67
-36.433	102.04
-36.005	92.004
-34.856	84.975
-33.265	71.603
-32.298	50.631
-32.505	24.845
-34.163	-3.2652
-37.72	-30.665
-44.084	-44.931
-46.286	-10.351
-40.57	-24.065
-36.563	-62.902
-33.431	-103.49
-31.032	-140.33
-29.422	-172.59
-28.517	159.58
-28.093	135.72
-27.884	114.51
-27.782	93.628
-27.965	70.978
-28.775	45.827
-30.629	18.687
-34.206	-8.4827
-41.412	-24.655
-44.263	41.074
-36.606	30.359
-33.093	-4.964
-31.216	-44.356
-30.24	-83.644
-30.056	-120.44
-30.789	-152.55
-32.519	-176.2
-34.467	175.22
-34.114	176.58
-32.121	166.22
-30.915	144.72
-31.148	118.78
-33.08	92.574
-37.324	72.249
-43.621	85.986
-40.492	114.38
-37.191	92.323
-36.389	54.119
-36.676	5.2237
-36.463	-49.998
-35.425	-99.976
-34.717	-139.19
-34.945	-167.77
-35.744	175.17
-35.887	167.37
-34.912	158
-34.005	141.43
-34.031	120.68
-35.194	100.31
-37.169	85.354
-38.615	77.731
-38.409	65.853
-37.739	39.556
-37.432	0.70395
-37.304	-46.126
-37.29	-95.495
-38.036	-144.24
-40.664	164.71
-46.275	86.891
-42.577	-26.173
-36.875	-79.944
-34.121	-118.16
-33.331	-150.05
-34.082	-174.73
-35.586	173.07
-35.504	172.12
-33.404	162.01
-31.608	137.9
-30.939	105.19
-31.424	66.584
-32.892	22.487
-35.01	-27.714
-37.444	-83.933
-40.473	-146.81
-43.998	127.97
-40.86	28.993
-35.791	-30.018
-32.632	-72.084
-30.939	-107.23
-30.363	-138.02
-30.683	-164.89
-31.683	172.37
-33.117	153.7
-34.844	138.38
-36.943	126.77
-39.201	123.48
-39.576	129.79
-37.275	124.96
-34.815	102.85
-33.014	70.743
-31.757	33.632
-30.912	-5.0355
-30.503	-42.617
-30.656	-77.288
-31.502	-107.47
-33.009	-130.59
-34.475	-143.37
-34.412	-150.66
-33.113	-165.81
-32.058	169.24
-31.736	138.2
-32.093	103.54
-32.947	67.2
-34.12	31.894
-35.455	1.5302
-36.575	-20.122
-36.711	-34.259
-35.811	-49
-34.933	-68.505
-34.899	-90.642
-36.085	-111.31
-38.514	-123.3
-40.201	-116.35
-37.974	-111.67
