Tektronix:  IConnect
Version 6.1.0

File Created: April 06, 2017 at 12:33PM
Created By: Tek_Local_Admin

Format: Waveform
Type: Time Domain

== Begin Header ==

Type: Impedance

Samples: 16000
Step Size: 313f
First Step: 0
Reference Impedance: 50

== End Header ==

Data:
50
49.976
49.949
49.953
49.982
49.977
49.954
49.907
49.898
49.922
49.963
50.007
50.023
50.037
50.029
50.015
49.994
49.981
49.986
50
50.002
49.983
49.946
49.924
49.923
49.951
49.983
50.018
50.025
50.015
49.991
49.98
49.992
50
50.016
50.032
50.047
50.043
50.016
50.006
50.009
50.022
50.019
50.005
49.985
49.968
49.964
49.975
49.988
49.993
49.994
49.995
49.997
50.001
50.019
50.053
50.085
50.087
50.073
50.047
50.039
50.03
50.03
50.027
50.033
50.046
50.061
50.062
50.055
50.055
50.075
50.093
50.094
50.085
50.08
50.082
50.069
50.052
50.037
50.044
50.06
50.073
50.071
50.049
50.019
49.991
49.98
49.985
49.995
50.007
50.028
50.05
50.069
50.067
50.07
50.07
50.078
50.065
50.043
50.022
50.027
50.039
50.044
50.027
50.014
50.003
50.01
50.019
50.039
50.054
50.081
50.103
50.119
50.121
50.112
50.1
50.083
50.067
50.045
50.023
50.01
50.019
50.031
50.031
50.02
50.008
50.006
49.998
49.999
49.995
49.996
49.994
50.007
50.021
50.026
50.019
50.018
50.027
50.036
50.032
50.025
50.022
50.037
50.054
50.063
50.051
50.026
50.009
49.999
50.004
50.012
50.03
50.038
50.045
50.037
50.039
50.031
50.035
50.038
50.052
50.063
50.067
50.068
50.056
50.045
50.033
50.031
50.028
50.019
50.022
50.038
50.06
50.061
50.047
50.025
50.005
49.989
49.999
50.026
50.048
50.047
50.026
50.018
50.023
50.04
50.047
50.046
50.043
50.049
50.059
50.061
50.049
50.03
50.028
50.047
50.085
50.115
50.13
50.107
50.078
50.048
50.036
50.036
50.044
50.07
50.07
50.056
50.024
50.033
50.065
50.098
50.101
50.095
50.09
50.097
50.104
50.122
50.129
50.123
50.107
50.096
50.091
50.082
50.065
50.045
50.04
50.032
50.034
50.017
50.014
50.012
50.052
50.085
50.099
50.071
50.046
50.035
50.037
50.036
50.044
50.041
50.032
50.003
49.989
49.985
50
50.016
50.037
50.042
50.05
50.05
50.057
50.058
50.056
50.045
50.035
50.029
50.03
50.035
50.045
50.056
50.056
50.053
50.049
50.061
50.073
50.084
50.076
50.054
50.021
50.001
50.01
50.043
50.072
50.084
50.086
50.082
50.078
50.069
50.071
50.076
50.077
50.06
50.039
50.025
50.03
50.041
50.046
50.036
50.023
50.016
50.012
50.019
50.033
50.059
50.081
50.091
50.082
50.063
50.052
50.065
50.083
50.103
50.106
50.11
50.102
50.094
50.082
50.073
50.067
50.07
50.092
50.137
50.183
50.201
50.182
50.142
50.11
50.087
50.082
50.087
50.107
50.119
50.13
50.129
50.116
50.079
50.035
50.013
50.019
50.034
50.045
50.05
50.076
50.095
50.092
50.068
50.04
50.036
50.032
50.034
50.036
50.05
50.075
50.107
50.142
50.179
50.184
50.163
50.12
50.097
50.094
50.097
50.1
50.115
50.14
50.154
50.15
50.126
50.105
50.072
50.06
50.055
50.077
50.096
50.108
50.108
50.096
50.082
50.074
50.079
50.082
50.066
50.042
50.025
50.036
50.055
50.082
50.088
50.093
50.075
50.064
50.06
50.086
50.117
50.127
50.108
50.083
50.066
50.067
50.064
50.059
50.049
50.047
50.048
50.051
50.056
50.086
50.123
50.16
50.162
50.143
50.124
50.12
50.135
50.144
50.136
50.1
50.053
50.021
50.021
50.045
50.067
50.084
50.103
50.131
50.145
50.135
50.117
50.121
50.146
50.157
50.149
50.131
50.136
50.151
50.176
50.177
50.165
50.143
50.137
50.147
50.155
50.157
50.146
50.141
50.14
50.146
50.148
50.156
50.168
50.186
50.189
50.183
50.166
50.158
50.154
50.15
50.126
50.083
50.043
50.015
50.012
50.012
50.027
50.041
50.057
50.071
50.084
50.102
50.114
50.117
50.125
50.129
50.135
50.119
50.106
50.088
50.072
50.059
50.056
50.084
50.118
50.158
50.168
50.165
50.143
50.118
50.089
50.074
50.072
50.076
50.086
50.086
50.083
50.064
50.055
50.068
50.093
50.114
50.111
50.102
50.103
50.109
50.122
50.117
50.111
50.103
50.119
50.139
50.152
50.148
50.131
50.113
50.096
50.084
50.068
50.064
50.069
50.094
50.107
50.114
50.101
50.108
50.12
50.136
50.132
50.117
50.097
50.08
50.067
50.057
50.059
50.086
50.14
50.197
50.224
50.202
50.174
50.152
50.146
50.114
50.077
50.049
50.045
50.058
50.068
50.091
50.113
50.133
50.133
50.122
50.122
50.125
50.131
50.115
50.105
50.098
50.103
50.099
50.086
50.088
50.098
50.11
50.084
50.05
50.025
50.033
50.064
50.097
50.128
50.146
50.149
50.141
50.128
50.128
50.115
50.111
50.1
50.113
50.119
50.12
50.111
50.109
50.119
50.135
50.131
50.112
50.089
50.08
50.084
50.076
50.073
50.056
50.067
50.062
50.066
50.048
50.038
50.032
50.045
50.067
50.092
50.117
50.146
50.179
50.182
50.155
50.099
50.073
50.074
50.095
50.092
50.073
50.071
50.087
50.105
50.09
50.066
50.045
50.044
50.05
50.057
50.049
50.033
50.014
50.002
50.001
50.003
50.028
50.049
50.069
50.062
50.055
50.057
50.063
50.065
50.048
50.044
50.048
50.05
50.037
50.018
50.026
50.041
50.057
50.055
50.053
50.063
50.076
50.083
50.079
50.068
50.057
50.038
50.026
50.022
50.036
50.051
50.049
50.04
50.029
50.046
50.068
50.096
50.099
50.093
50.085
50.089
50.092
50.084
50.07
50.063
50.063
50.087
50.112
50.132
50.117
50.092
50.07
50.06
50.062
50.073
50.09
50.091
50.077
50.055
50.05
50.064
50.098
50.13
50.144
50.141
50.129
50.126
50.111
50.095
50.066
50.043
50.032
50.035
50.05
50.047
50.046
50.061
50.094
50.127
50.135
50.124
50.105
50.092
50.092
50.102
50.103
50.104
50.093
50.094
50.084
50.083
50.072
50.074
50.078
50.088
50.091
50.091
50.089
50.087
50.093
50.103
50.107
50.093
50.072
50.062
50.069
50.083
50.09
50.088
50.068
50.055
50.059
50.094
50.124
50.139
50.135
50.123
50.115
50.122
50.156
50.185
50.19
50.169
50.153
50.159
50.168
50.163
50.136
50.102
50.081
50.07
50.071
50.068
50.067
50.05
50.045
50.053
50.091
50.112
50.107
50.075
50.053
50.041
50.044
50.043
50.054
50.071
50.094
50.103
50.109
50.117
50.141
50.144
50.131
50.096
50.08
50.073
50.091
50.103
50.112
50.105
50.097
50.08
50.056
50.023
49.999
49.997
50.017
50.046
50.061
50.069
50.07
50.089
50.114
50.132
50.117
50.088
50.068
50.075
50.09
50.097
50.11
50.124
50.14
50.132
50.125
50.113
50.107
50.105
50.102
50.109
50.107
50.124
50.14
50.161
50.153
50.128
50.101
50.093
50.108
50.127
50.125
50.106
50.083
50.08
50.083
50.076
50.064
50.048
50.057
50.075
50.096
50.103
50.1
50.109
50.121
50.133
50.119
50.096
50.074
50.076
50.09
50.11
50.119
50.125
50.137
50.141
50.139
50.124
50.122
50.129
50.131
50.136
50.13
50.125
50.1
50.071
50.046
50.038
50.044
50.063
50.073
50.079
50.079
50.078
50.078
50.056
50.041
50.033
50.044
50.066
50.084
50.107
50.11
50.099
50.086
50.09
50.11
50.107
50.081
50.057
50.051
50.073
50.076
50.069
50.043
50.041
50.048
50.068
50.076
50.081
50.071
50.061
50.061
50.083
50.105
50.114
50.096
50.076
50.066
50.085
50.114
50.124
50.108
50.072
50.054
50.071
50.108
50.132
50.115
50.079
50.046
50.041
50.052
50.071
50.078
50.08
50.074
50.076
50.079
50.091
50.106
50.125
50.124
50.109
50.08
50.07
50.076
50.106
50.136
50.154
50.158
50.139
50.115
50.082
50.074
50.071
50.076
50.064
50.06
50.044
50.04
50.048
50.082
50.105
50.094
50.073
50.056
50.053
50.05
50.048
50.056
50.065
50.087
50.101
50.116
50.123
50.137
50.139
50.123
50.096
50.07
50.06
50.058
50.07
50.077
50.094
50.096
50.091
50.065
50.051
50.066
50.089
50.122
50.132
50.137
50.122
50.109
50.101
50.104
50.112
50.128
50.133
50.134
50.136
50.15
50.165
50.158
50.147
50.136
50.139
50.134
50.126
50.126
50.132
50.142
50.121
50.099
50.068
50.064
50.056
50.062
50.071
50.089
50.087
50.07
50.037
50.015
50.001
50.013
50.029
50.038
50.028
50.018
50.016
50.027
50.042
50.052
50.05
50.006
49.954
49.913
49.926
49.949
49.964
49.951
49.934
49.92
49.922
49.932
49.937
49.939
49.933
49.933
49.933
49.925
49.894
49.839
49.798
49.795
49.813
49.822
49.814
49.811
49.82
49.834
49.845
49.855
49.859
49.868
49.876
49.885
49.88
49.855
49.826
49.796
49.784
49.776
49.786
49.801
49.817
49.816
49.813
49.806
49.806
49.793
49.801
49.818
49.852
49.862
49.863
49.853
49.84
49.827
49.802
49.783
49.759
49.758
49.778
49.83
49.895
49.936
49.951
49.943
49.944
49.944
49.959
49.962
49.965
49.947
49.944
49.954
49.983
50.009
50.032
50.05
50.067
50.068
50.069
50.089
50.119
50.141
50.139
50.135
50.136
50.142
50.163
50.191
50.217
50.216
50.211
50.222
50.241
50.235
50.198
50.164
50.157
50.167
50.187
50.194
50.213
50.209
50.211
50.183
50.165
50.133
50.123
50.127
50.162
50.19
50.192
50.165
50.146
50.162
50.175
50.184
50.173
50.173
50.168
50.157
50.147
50.145
50.144
50.141
50.139
50.155
50.166
50.16
50.132
50.125
50.126
50.151
50.143
50.142
50.123
50.119
50.113
50.117
50.118
50.107
50.091
50.081
50.083
50.099
50.125
50.154
50.18
50.188
50.181
50.154
50.138
50.146
50.179
50.218
50.24
50.247
50.254
50.256
50.247
50.197
50.153
50.122
50.131
50.131
50.143
50.147
50.144
50.114
50.094
50.109
50.139
50.151
50.142
50.131
50.123
50.121
50.129
50.145
50.169
50.173
50.169
50.131
50.105
50.081
50.101
50.126
50.145
50.14
50.122
50.119
50.128
50.15
50.154
50.142
50.108
50.083
50.07
50.073
50.08
50.092
50.11
50.122
50.12
50.112
50.116
50.122
50.107
50.065
50.017
49.993
49.98
49.984
49.993
50.015
50.021
49.996
49.963
49.93
49.92
49.904
49.901
49.902
49.898
49.898
49.883
49.891
49.897
49.912
49.914
49.907
49.912
49.933
49.97
49.993
50.008
49.995
49.978
49.953
49.959
49.974
49.998
49.991
49.989
49.995
50.023
50.024
50.003
49.971
49.971
49.987
50.012
50.018
50.019
50.025
50.038
50.06
50.058
50.062
50.051
50.065
50.083
50.112
50.122
50.11
50.086
50.066
50.066
50.079
50.101
50.105
50.094
50.086
50.107
50.148
50.17
50.182
50.178
50.179
50.168
50.165
50.166
50.173
50.186
50.197
50.201
50.19
50.189
50.215
50.25
50.278
50.273
50.255
50.219
50.187
50.165
50.161
50.177
50.197
50.23
50.248
50.245
50.208
50.181
50.17
50.188
50.199
50.224
50.244
50.263
50.261
50.249
50.237
50.226
50.216
50.195
50.175
50.161
50.168
50.171
50.175
50.166
50.169
50.165
50.164
50.149
50.15
50.164
50.212
50.251
50.28
50.27
50.252
50.217
50.186
50.153
50.14
50.157
50.207
50.251
50.262
50.228
50.191
50.161
50.162
50.166
50.176
50.173
50.166
50.151
50.144
50.146
50.161
50.19
50.226
50.264
50.281
50.278
50.252
50.228
50.214
50.225
50.239
50.245
50.255
50.271
50.29
50.295
50.288
50.273
50.254
50.227
50.214
50.221
50.249
50.268
50.267
50.245
50.215
50.182
50.17
50.177
50.205
50.221
50.217
50.194
50.18
50.166
50.159
50.153
50.161
50.158
50.149
50.135
50.129
50.111
50.107
50.111
50.125
50.119
50.113
50.126
50.141
50.143
50.126
50.119
50.119
50.116
50.101
50.085
50.082
50.092
50.102
50.103
50.1
50.106
50.111
50.118
50.126
50.149
50.17
50.194
50.191
50.19
50.178
50.191
50.192
50.211
50.217
50.24
50.235
50.223
50.187
50.149
50.12
50.113
50.135
50.157
50.16
50.144
50.13
50.132
50.148
50.167
50.175
50.156
50.123
50.087
50.07
50.061
50.064
50.075
50.085
50.078
50.04
49.992
49.952
49.944
49.944
49.938
49.894
49.845
49.803
49.784
49.785
49.783
49.786
49.77
49.761
49.745
49.735
49.712
49.688
49.643
49.598
49.553
49.527
49.497
49.458
49.411
49.371
49.336
49.304
49.289
49.287
49.275
49.229
49.181
49.145
49.137
49.112
49.093
49.064
49.044
49.01
48.976
48.945
48.917
48.898
48.869
48.849
48.807
48.762
48.703
48.652
48.605
48.568
48.546
48.539
48.531
48.506
48.451
48.391
48.342
48.325
48.309
48.29
48.25
48.219
48.185
48.159
48.11
48.05
47.977
47.922
47.876
47.839
47.799
47.784
47.771
47.77
47.745
47.734
47.703
47.67
47.63
47.596
47.578
47.564
47.568
47.58
47.598
47.608
47.61
47.593
47.573
47.546
47.528
47.521
47.53
47.562
47.586
47.6
47.6
47.614
47.634
47.655
47.664
47.67
47.682
47.698
47.711
47.725
47.757
47.824
47.887
47.928
47.931
47.929
47.937
47.958
47.977
47.993
48.01
48.052
48.1
48.156
48.19
48.237
48.289
48.353
48.397
48.417
48.435
48.464
48.515
48.569
48.622
48.672
48.714
48.751
48.787
48.832
48.881
48.923
48.954
48.986
49.021
49.063
49.095
49.145
49.197
49.255
49.287
49.312
49.349
49.402
49.462
49.513
49.561
49.608
49.657
49.711
49.775
49.835
49.878
49.898
49.911
49.937
49.974
50.025
50.073
50.127
50.185
50.248
50.316
50.383
50.442
50.483
50.508
50.526
50.541
50.581
50.646
50.724
50.788
50.838
50.88
50.895
50.892
50.883
50.898
50.915
50.937
50.954
50.973
50.986
50.999
51.022
51.044
51.077
51.103
51.13
51.141
51.133
51.114
51.1
51.103
51.12
51.134
51.145
51.136
51.113
51.086
51.063
51.044
51.021
50.983
50.939
50.891
50.856
50.823
50.805
50.779
50.761
50.729
50.702
50.668
50.627
50.563
50.472
50.376
50.284
50.214
50.141
50.071
49.986
49.91
49.848
49.799
49.747
49.659
49.538
49.392
49.247
49.112
48.999
48.892
48.792
48.672
48.551
48.418
48.293
48.175
48.057
47.93
47.775
47.62
47.463
47.314
47.158
47.004
46.864
46.727
46.586
46.416
46.235
46.04
45.863
45.691
45.545
45.374
45.195
44.981
44.778
44.56
44.354
44.13
43.921
43.704
43.511
43.309
43.106
42.877
42.635
42.381
42.14
41.92
41.725
41.52
41.29
41.02
40.719
40.409
40.113
39.841
39.601
39.356
39.115
38.835
38.551
38.242
37.95
37.641
37.341
37.044
36.789
36.526
36.248
35.941
35.656
35.352
35.024
34.668
34.345
34.033
33.73
33.395
33.08
32.768
32.479
32.187
31.904
31.609
31.292
30.944
30.6
30.267
29.958
29.669
29.409
29.164
28.904
28.616
28.32
28.024
27.741
27.45
27.168
26.919
26.695
26.477
26.226
25.971
25.723
25.5
25.281
25.078
24.872
24.673
24.462
24.278
24.109
23.952
23.777
23.605
23.444
23.301
23.16
23.018
22.869
22.725
22.588
22.473
22.369
22.274
22.185
22.101
22.023
21.932
21.856
21.785
21.741
21.691
21.649
21.606
21.561
21.54
21.527
21.532
21.519
21.506
21.496
21.512
21.544
21.589
21.633
21.686
21.739
21.786
21.825
21.863
21.925
22.011
22.112
22.189
22.261
22.319
22.412
22.508
22.642
22.794
22.959
23.107
23.213
23.31
23.417
23.564
23.734
23.905
24.07
24.232
24.413
24.577
24.748
24.917
25.129
25.366
25.59
25.805
25.971
26.155
26.322
26.525
26.738
26.976
27.194
27.366
27.49
27.637
27.827
28.122
28.455
28.831
29.12
29.376
29.597
29.871
30.137
30.372
30.597
30.857
31.176
31.463
31.72
31.99
32.312
32.634
32.828
32.992
33.181
33.495
33.789
34.054
34.281
34.546
34.851
35.19
35.534
35.833
36.077
36.276
36.468
36.659
36.845
37.062
37.271
37.499
37.711
38.029
38.382
38.738
38.954
39.114
39.282
39.527
39.805
40.069
40.275
40.467
40.606
40.775
40.903
41.093
41.27
41.458
41.586
41.687
41.776
41.912
42.051
42.192
42.261
42.329
42.406
42.525
42.67
42.807
42.916
42.984
43.01
43.043
43.063
43.11
43.152
43.214
43.262
43.277
43.256
43.24
43.242
43.244
43.221
43.192
43.181
43.167
43.132
43.058
42.965
42.887
42.844
42.814
42.761
42.666
42.566
42.467
42.375
42.268
42.167
42.065
41.965
41.852
41.741
41.637
41.529
41.416
41.285
41.158
41.019
40.879
40.735
40.599
40.455
40.301
40.139
39.99
39.858
39.728
39.603
39.47
39.33
39.178
39.035
38.907
38.786
38.657
38.535
38.406
38.27
38.126
37.988
37.869
37.749
37.631
37.513
37.407
37.311
37.207
37.091
36.969
36.861
36.765
36.676
36.597
36.531
36.463
36.388
36.306
36.233
36.153
36.071
35.987
35.926
35.894
35.877
35.856
35.812
35.758
35.711
35.689
35.68
35.671
35.649
35.637
35.627
35.621
35.62
35.633
35.665
35.692
35.721
35.754
35.797
35.833
35.852
35.862
35.885
35.919
35.955
35.983
36.018
36.07
36.124
36.169
36.193
36.218
36.253
36.315
36.382
36.449
36.497
36.558
36.632
36.711
36.775
36.819
36.868
36.916
36.966
36.998
37.015
37.024
37.048
37.097
37.155
37.213
37.256
37.291
37.312
37.333
37.348
37.366
37.374
37.389
37.393
37.41
37.422
37.448
37.463
37.459
37.441
37.411
37.4
37.391
37.402
37.405
37.412
37.396
37.374
37.351
37.338
37.316
37.28
37.238
37.207
37.18
37.151
37.107
37.058
36.999
36.962
36.93
36.911
36.869
36.829
36.784
36.756
36.712
36.671
36.618
36.58
36.536
36.499
36.462
36.432
36.395
36.35
36.302
36.264
36.227
36.2
36.176
36.168
36.149
36.115
36.071
36.034
36.017
36.003
35.991
35.977
35.966
35.975
35.978
35.98
35.962
35.947
35.938
35.936
35.946
35.967
35.988
35.996
35.986
35.974
35.977
35.998
36.031
36.061
36.088
36.11
36.134
36.16
36.196
36.239
36.29
36.334
36.374
36.406
36.436
36.466
36.502
36.536
36.572
36.616
36.68
36.747
36.809
36.854
36.89
36.914
36.937
36.982
37.053
37.143
37.212
37.265
37.3
37.34
37.385
37.428
37.466
37.509
37.574
37.652
37.722
37.759
37.785
37.818
37.874
37.939
37.992
38.038
38.076
38.135
38.2
38.262
38.312
38.354
38.391
38.42
38.463
38.527
38.607
38.675
38.729
38.775
38.814
38.853
38.894
38.946
39.007
39.048
39.069
39.077
39.113
39.171
39.243
39.302
39.347
39.376
39.413
39.453
39.505
39.54
39.566
39.571
39.581
39.593
39.599
39.593
39.588
39.606
39.631
39.652
39.656
39.654
39.642
39.626
39.611
39.604
39.6
39.607
39.601
39.588
39.555
39.542
39.549
39.567
39.572
39.555
39.529
39.493
39.459
39.433
39.411
39.379
39.337
39.295
39.27
39.253
39.249
39.239
39.226
39.185
39.122
39.043
38.978
38.932
38.894
38.847
38.798
38.764
38.744
38.73
38.7
38.676
38.651
38.624
38.573
38.51
38.447
38.394
38.357
38.328
38.304
38.276
38.248
38.231
38.212
38.188
38.155
38.129
38.112
38.102
38.091
38.07
38.033
37.988
37.945
37.917
37.894
37.891
37.89
37.893
37.885
37.891
37.908
37.917
37.899
37.858
37.831
37.824
37.838
37.843
37.843
37.835
37.838
37.83
37.819
37.805
37.815
37.823
37.827
37.82
37.832
37.863
37.902
37.92
37.911
37.897
37.897
37.926
37.966
38.014
38.047
38.077
38.088
38.103
38.107
38.123
38.132
38.151
38.162
38.173
38.182
38.196
38.225
38.25
38.273
38.284
38.306
38.341
38.381
38.412
38.419
38.414
38.41
38.425
38.466
38.514
38.556
38.588
38.614
38.636
38.633
38.635
38.642
38.674
38.702
38.727
38.746
38.766
38.788
38.819
38.847
38.876
38.894
38.925
38.953
38.984
39.006
39.031
39.057
39.072
39.086
39.106
39.154
39.207
39.252
39.275
39.286
39.297
39.311
39.337
39.368
39.394
39.412
39.421
39.438
39.45
39.467
39.473
39.485
39.484
39.49
39.482
39.491
39.489
39.498
39.495
39.504
39.521
39.541
39.555
39.554
39.571
39.6
39.629
39.635
39.618
39.607
39.603
39.611
39.615
39.62
39.608
39.596
39.577
39.6
39.634
39.674
39.678
39.665
39.642
39.616
39.604
39.61
39.629
39.64
39.632
39.618
39.611
39.599
39.586
39.575
39.592
39.611
39.624
39.61
39.602
39.597
39.609
39.6
39.586
39.56
39.557
39.552
39.541
39.52
39.516
39.533
39.554
39.557
39.556
39.55
39.554
39.542
39.528
39.515
39.522
39.531
39.535
39.526
39.516
39.501
39.489
39.482
39.488
39.499
39.511
39.52
39.526
39.537
39.541
39.537
39.519
39.499
39.501
39.517
39.545
39.547
39.54
39.518
39.501
39.485
39.469
39.455
39.45
39.452
39.455
39.447
39.448
39.446
39.448
39.436
39.433
39.441
39.461
39.465
39.448
39.427
39.419
39.43
39.437
39.44
39.429
39.417
39.399
39.384
39.375
39.376
39.392
39.408
39.418
39.408
39.396
39.394
39.411
39.439
39.464
39.485
39.494
39.494
39.482
39.467
39.459
39.464
39.48
39.482
39.47
39.454
39.454
39.446
39.431
39.404
39.391
39.383
39.38
39.383
39.394
39.404
39.407
39.405
39.403
39.406
39.414
39.422
39.42
39.413
39.404
39.405
39.407
39.412
39.415
39.409
39.407
39.398
39.397
39.39
39.386
39.392
39.404
39.412
39.412
39.414
39.424
39.445
39.464
39.49
39.506
39.518
39.507
39.481
39.458
39.451
39.472
39.497
39.521
39.535
39.55
39.576
39.6
39.606
39.595
39.587
39.6
39.613
39.624
39.627
39.631
39.627
39.619
39.621
39.626
39.63
39.638
39.668
39.712
39.747
39.756
39.741
39.713
39.697
39.702
39.728
39.755
39.777
39.794
39.806
39.81
39.806
39.814
39.837
39.869
39.891
39.898
39.89
39.871
39.861
39.866
39.888
39.892
39.886
39.862
39.855
39.856
39.882
39.91
39.942
39.963
39.967
39.95
39.92
39.899
39.91
39.944
39.982
40.005
39.999
39.975
39.947
39.931
39.94
39.955
39.971
39.974
39.968
39.955
39.935
39.924
39.92
39.927
39.946
39.96
39.961
39.944
39.922
39.898
39.882
39.878
39.885
39.888
39.888
39.885
39.882
39.88
39.879
39.891
39.9
39.914
39.924
39.944
39.954
39.944
39.925
39.905
39.906
39.895
39.878
39.857
39.858
39.881
39.902
39.906
39.894
39.884
39.879
39.858
39.822
39.788
39.78
39.806
39.841
39.877
39.879
39.866
39.836
39.831
39.837
39.85
39.842
39.821
39.789
39.766
39.739
39.716
39.694
39.688
39.682
39.67
39.649
39.62
39.597
39.588
39.602
39.615
39.618
39.598
39.584
39.561
39.544
39.516
39.489
39.469
39.449
39.439
39.432
39.429
39.429
39.419
39.408
39.388
39.378
39.362
39.345
39.314
39.286
39.258
39.247
39.248
39.252
39.246
39.223
39.201
39.181
39.167
39.154
39.141
39.139
39.133
39.128
39.106
39.084
39.067
39.068
39.081
39.088
39.075
39.049
39.044
39.061
39.084
39.089
39.086
39.092
39.104
39.108
39.101
39.088
39.085
39.084
39.091
39.098
39.108
39.114
39.117
39.124
39.136
39.159
39.173
39.178
39.178
39.184
39.202
39.214
39.235
39.247
39.267
39.279
39.312
39.347
39.385
39.4
39.414
39.429
39.445
39.45
39.459
39.486
39.521
39.551
39.563
39.574
39.581
39.589
39.593
39.609
39.642
39.682
39.704
39.703
39.699
39.715
39.749
39.78
39.798
