Tektronix:  IConnect
Version 6.1.0

File Created: April 06, 2017 at 12:35PM
Created By: Tek_Local_Admin

Format: Waveform
Type: Time Domain

== Begin Header ==

Type: Impedance

Samples: 16000
Step Size: 313f
First Step: 0
Reference Impedance: 50

== End Header ==

Data:
50
50.029
50.057
50.076
50.058
50.005
49.963
49.907
49.904
49.921
49.969
50.023
50.055
50.092
50.081
50.055
50.005
49.982
49.978
49.974
49.965
49.957
49.959
49.971
49.986
50.006
50.016
50.03
50.038
50.043
50.036
50.019
50.007
49.99
49.99
49.997
50.014
50.018
50.001
49.989
49.986
49.988
49.983
49.977
49.979
49.984
49.986
49.993
50.012
50.033
50.042
50.03
50.01
49.998
50.005
50.027
50.055
50.067
50.085
50.094
50.11
50.094
50.071
50.045
50.042
50.059
50.089
50.116
50.126
50.123
50.114
50.104
50.085
50.075
50.07
50.073
50.073
50.073
50.074
50.073
50.079
50.084
50.093
50.089
50.066
50.03
50.001
49.993
50.01
50.026
50.057
50.082
50.118
50.135
50.148
50.15
50.138
50.113
50.081
50.068
50.075
50.088
50.087
50.068
50.051
50.04
50.036
50.031
50.035
50.042
50.06
50.072
50.093
50.104
50.103
50.089
50.073
50.061
50.042
50.02
50.014
50.034
50.061
50.074
50.067
50.053
50.046
50.047
50.058
50.069
50.077
50.086
50.086
50.082
50.071
50.069
50.077
50.086
50.092
50.084
50.072
50.049
50.042
50.049
50.073
50.086
50.082
50.068
50.051
50.037
50.027
50.028
50.044
50.066
50.076
50.071
50.06
50.06
50.076
50.094
50.103
50.104
50.099
50.094
50.089
50.092
50.095
50.096
50.079
50.064
50.046
50.041
50.042
50.045
50.045
50.037
50.038
50.045
50.054
50.046
50.028
50.004
49.999
50.011
50.041
50.057
50.068
50.079
50.115
50.145
50.148
50.107
50.052
50.014
50.015
50.044
50.058
50.056
50.019
50.011
50.016
50.048
50.075
50.078
50.071
50.032
50.007
49.985
50.006
50.038
50.074
50.085
50.086
50.067
50.051
50.035
50.042
50.053
50.07
50.084
50.096
50.108
50.109
50.113
50.119
50.132
50.142
50.152
50.15
50.126
50.087
50.071
50.087
50.102
50.089
50.063
50.048
50.042
50.033
50.034
50.038
50.039
50.027
50.007
50.002
50.002
50.022
50.044
50.07
50.086
50.087
50.089
50.083
50.079
50.054
50.032
50.013
50.024
50.056
50.091
50.099
50.064
50.031
50.012
50.021
50.029
50.033
50.035
50.018
49.992
49.969
49.976
50.012
50.047
50.073
50.089
50.095
50.096
50.087
50.087
50.084
50.083
50.068
50.067
50.074
50.101
50.101
50.085
50.062
50.066
50.084
50.098
50.108
50.117
50.129
50.127
50.116
50.097
50.08
50.07
50.081
50.111
50.136
50.139
50.124
50.11
50.101
50.093
50.082
50.083
50.098
50.118
50.144
50.155
50.163
50.137
50.108
50.073
50.06
50.055
50.059
50.078
50.098
50.124
50.138
50.144
50.15
50.149
50.163
50.158
50.16
50.146
50.14
50.132
50.138
50.139
50.123
50.081
50.052
50.048
50.064
50.072
50.077
50.105
50.15
50.185
50.188
50.165
50.137
50.105
50.084
50.074
50.085
50.101
50.121
50.124
50.118
50.101
50.092
50.094
50.091
50.082
50.057
50.044
50.048
50.063
50.08
50.083
50.086
50.086
50.1
50.11
50.104
50.082
50.058
50.054
50.06
50.09
50.117
50.139
50.121
50.094
50.076
50.089
50.121
50.14
50.155
50.146
50.126
50.1
50.083
50.083
50.078
50.081
50.091
50.109
50.129
50.15
50.159
50.149
50.128
50.115
50.11
50.108
50.11
50.113
50.115
50.107
50.09
50.082
50.088
50.107
50.114
50.117
50.119
50.137
50.149
50.152
50.146
50.156
50.171
50.174
50.145
50.107
50.093
50.1
50.12
50.123
50.134
50.141
50.156
50.158
50.161
50.159
50.149
50.134
50.12
50.126
50.136
50.159
50.171
50.18
50.169
50.165
50.168
50.178
50.177
50.162
50.132
50.088
50.045
50.032
50.054
50.084
50.1
50.093
50.074
50.055
50.057
50.08
50.119
50.14
50.16
50.16
50.159
50.136
50.114
50.095
50.093
50.103
50.116
50.135
50.153
50.174
50.189
50.182
50.155
50.111
50.078
50.058
50.057
50.067
50.088
50.11
50.129
50.131
50.128
50.112
50.096
50.074
50.07
50.068
50.086
50.098
50.111
50.101
50.091
50.09
50.106
50.129
50.137
50.14
50.129
50.117
50.091
50.068
50.054
50.069
50.097
50.118
50.117
50.106
50.1
50.102
50.109
50.12
50.132
50.146
50.152
50.16
50.152
50.141
50.124
50.14
50.161
50.175
50.154
50.123
50.104
50.106
50.121
50.124
50.107
50.074
50.055
50.064
50.093
50.126
50.153
50.168
50.176
50.174
50.17
50.146
50.125
50.104
50.112
50.11
50.101
50.08
50.069
50.071
50.075
50.086
50.093
50.089
50.066
50.047
50.047
50.071
50.099
50.128
50.151
50.154
50.144
50.124
50.108
50.1
50.097
50.117
50.135
50.148
50.138
50.122
50.113
50.123
50.136
50.146
50.143
50.14
50.14
50.136
50.141
50.124
50.105
50.074
50.069
50.069
50.072
50.071
50.067
50.078
50.093
50.133
50.17
50.196
50.184
50.146
50.103
50.081
50.088
50.102
50.105
50.088
50.076
50.076
50.091
50.103
50.1
50.076
50.047
50.039
50.047
50.054
50.037
50.015
49.996
50
50.019
50.054
50.08
50.093
50.079
50.06
50.043
50.035
50.031
50.033
50.054
50.091
50.123
50.13
50.12
50.116
50.106
50.096
50.076
50.082
50.106
50.141
50.15
50.132
50.095
50.063
50.037
50.026
50.034
50.061
50.088
50.091
50.08
50.075
50.08
50.091
50.098
50.106
50.102
50.096
50.089
50.091
50.095
50.102
50.113
50.122
50.12
50.112
50.101
50.082
50.062
50.05
50.053
50.058
50.082
50.111
50.132
50.115
50.088
50.072
50.093
50.12
50.136
50.126
50.116
50.111
50.122
50.116
50.106
50.079
50.074
50.067
50.077
50.072
50.067
50.055
50.06
50.081
50.111
50.131
50.133
50.118
50.098
50.075
50.06
50.045
50.062
50.079
50.109
50.114
50.126
50.118
50.113
50.102
50.099
50.101
50.105
50.119
50.118
50.104
50.083
50.084
50.1
50.114
50.113
50.11
50.11
50.108
50.098
50.08
50.081
50.099
50.125
50.125
50.109
50.089
50.074
50.067
50.07
50.1
50.128
50.157
50.17
50.19
50.191
50.19
50.167
50.153
50.122
50.108
50.099
50.106
50.104
50.094
50.064
50.048
50.059
50.121
50.175
50.188
50.139
50.093
50.071
50.08
50.09
50.11
50.142
50.183
50.208
50.205
50.181
50.154
50.135
50.128
50.128
50.12
50.122
50.139
50.181
50.194
50.179
50.137
50.106
50.079
50.065
50.063
50.081
50.092
50.101
50.09
50.082
50.082
50.121
50.183
50.231
50.229
50.189
50.149
50.115
50.1
50.096
50.129
50.153
50.164
50.144
50.14
50.136
50.131
50.108
50.077
50.05
50.03
50.046
50.076
50.11
50.118
50.114
50.105
50.1
50.108
50.119
50.136
50.134
50.128
50.119
50.124
50.126
50.119
50.098
50.1
50.114
50.134
50.127
50.119
50.129
50.158
50.169
50.15
50.127
50.117
50.134
50.143
50.157
50.146
50.136
50.12
50.122
50.134
50.15
50.169
50.176
50.162
50.143
50.13
50.13
50.123
50.1
50.076
50.045
50.044
50.066
50.116
50.131
50.111
50.067
50.051
50.053
50.074
50.088
50.102
50.104
50.112
50.13
50.143
50.137
50.115
50.125
50.156
50.177
50.148
50.102
50.074
50.078
50.088
50.091
50.078
50.072
50.076
50.096
50.108
50.107
50.086
50.055
50.049
50.071
50.115
50.13
50.12
50.101
50.096
50.097
50.101
50.104
50.101
50.085
50.064
50.057
50.061
50.07
50.068
50.066
50.062
50.068
50.086
50.112
50.138
50.146
50.143
50.124
50.115
50.119
50.134
50.148
50.139
50.128
50.112
50.111
50.112
50.12
50.134
50.146
50.156
50.143
50.108
50.06
50.035
50.031
50.044
50.059
50.089
50.107
50.109
50.102
50.109
50.13
50.152
50.179
50.186
50.176
50.155
50.151
50.155
50.152
50.134
50.119
50.125
50.152
50.18
50.171
50.147
50.129
50.139
50.157
50.161
50.16
50.157
50.166
50.172
50.163
50.144
50.141
50.165
50.184
50.195
50.195
50.222
50.235
50.242
50.227
50.228
50.238
50.245
50.24
50.22
50.216
50.211
50.208
50.191
50.19
50.191
50.203
50.2
50.207
50.21
50.215
50.209
50.189
50.168
50.147
50.137
50.131
50.138
50.164
50.204
50.218
50.205
50.159
50.122
50.098
50.104
50.129
50.138
50.136
50.108
50.102
50.088
50.09
50.081
50.082
50.06
50.03
50.005
50.012
50.032
50.045
50.047
50.043
50.041
50.028
50.01
49.975
49.939
49.913
49.908
49.929
49.943
49.948
49.929
49.92
49.921
49.923
49.91
49.893
49.885
49.905
49.931
49.958
49.973
49.983
49.995
49.994
49.991
49.976
49.961
49.933
49.913
49.902
49.914
49.933
49.955
49.956
49.921
49.879
49.851
49.862
49.881
49.905
49.921
49.939
49.94
49.946
49.931
49.927
49.923
49.937
49.944
49.943
49.945
49.969
50.01
50.041
50.054
50.048
50.049
50.05
50.05
50.056
50.068
50.1
50.132
50.165
50.182
50.19
50.19
50.202
50.218
50.242
50.257
50.266
50.281
50.299
50.319
50.328
50.33
50.332
50.314
50.312
50.316
50.344
50.348
50.343
50.339
50.347
50.362
50.363
50.364
50.357
50.363
50.383
50.407
50.436
50.441
50.448
50.428
50.408
50.367
50.343
50.337
50.368
50.398
50.414
50.412
50.401
50.395
50.367
50.342
50.314
50.318
50.327
50.338
50.339
50.336
50.329
50.32
50.312
50.301
50.293
50.275
50.261
50.265
50.284
50.306
50.295
50.284
50.277
50.291
50.299
50.293
50.267
50.245
50.241
50.256
50.264
50.279
50.296
50.318
50.34
50.366
50.393
50.397
50.386
50.38
50.382
50.372
50.335
50.295
50.287
50.306
50.333
50.326
50.313
50.305
50.321
50.316
50.3
50.275
50.267
50.254
50.247
50.247
50.259
50.256
50.245
50.234
50.241
50.262
50.29
50.322
50.338
50.341
50.327
50.306
50.282
50.258
50.254
50.259
50.273
50.278
50.273
50.263
50.256
50.259
50.261
50.257
50.241
50.219
50.203
50.199
50.22
50.253
50.284
50.288
50.267
50.244
50.241
50.249
50.248
50.225
50.196
50.178
50.176
50.181
50.184
50.184
50.167
50.135
50.106
50.097
50.11
50.104
50.095
50.072
50.062
50.057
50.051
50.051
50.047
50.053
50.049
50.044
50.045
50.056
50.079
50.103
50.135
50.14
50.126
50.086
50.067
50.07
50.095
50.114
50.119
50.115
50.117
50.118
50.12
50.128
50.148
50.178
50.187
50.179
50.155
50.157
50.168
50.189
50.188
50.19
50.193
50.212
50.231
50.246
50.252
50.244
50.227
50.212
50.215
50.232
50.244
50.227
50.196
50.18
50.215
50.279
50.347
50.372
50.363
50.327
50.299
50.294
50.298
50.305
50.305
50.312
50.339
50.362
50.394
50.408
50.431
50.434
50.413
50.367
50.311
50.275
50.257
50.262
50.281
50.307
50.327
50.329
50.301
50.264
50.239
50.246
50.272
50.286
50.3
50.307
50.323
50.333
50.338
50.329
50.314
50.292
50.284
50.272
50.269
50.264
50.261
50.258
50.24
50.224
50.21
50.207
50.2
50.2
50.202
50.225
50.24
50.256
50.252
50.247
50.241
50.246
50.246
50.244
50.246
50.255
50.264
50.267
50.257
50.241
50.217
50.205
50.21
50.226
50.241
50.227
50.189
50.132
50.101
50.104
50.154
50.207
50.244
50.251
50.253
50.251
50.235
50.19
50.155
50.134
50.151
50.167
50.193
50.214
50.243
50.248
50.227
50.186
50.156
50.147
50.164
50.179
50.188
50.176
50.179
50.189
50.196
50.181
50.166
50.168
50.194
50.204
50.207
50.195
50.172
50.129
50.091
50.079
50.089
50.099
50.093
50.076
50.038
50.032
50.042
50.078
50.081
50.068
50.057
50.062
50.073
50.077
50.073
50.075
50.082
50.086
50.091
50.083
50.091
50.097
50.117
50.119
50.118
50.109
50.117
50.121
50.135
50.135
50.15
50.142
50.135
50.122
50.13
50.146
50.159
50.168
50.182
50.191
50.204
50.195
50.189
50.176
50.176
50.19
50.208
50.217
50.203
50.186
50.194
50.21
50.222
50.204
50.17
50.139
50.112
50.104
50.087
50.088
50.089
50.105
50.113
50.118
50.098
50.071
50.043
50.029
50.009
49.982
49.95
49.924
49.897
49.885
49.885
49.898
49.901
49.895
49.877
49.857
49.827
49.793
49.75
49.726
49.709
49.692
49.646
49.584
49.526
49.487
49.469
49.461
49.465
49.473
49.477
49.467
49.438
49.401
49.364
49.33
49.306
49.277
49.244
49.209
49.172
49.151
49.117
49.103
49.081
49.087
49.078
49.064
49.027
48.99
48.952
48.917
48.891
48.893
48.901
48.899
48.842
48.769
48.704
48.676
48.664
48.649
48.631
48.613
48.584
48.545
48.491
48.451
48.427
48.425
48.413
48.377
48.324
48.3
48.288
48.291
48.278
48.274
48.259
48.24
48.221
48.214
48.207
48.206
48.217
48.253
48.277
48.275
48.254
48.229
48.219
48.208
48.212
48.237
48.271
48.313
48.345
48.379
48.387
48.376
48.367
48.381
48.406
48.426
48.447
48.479
48.504
48.538
48.567
48.62
48.652
48.68
48.69
48.703
48.707
48.719
48.742
48.785
48.831
48.889
48.937
48.985
49.02
49.058
49.108
49.164
49.228
49.264
49.294
49.319
49.369
49.431
49.497
49.557
49.599
49.617
49.626
49.642
49.663
49.7
49.744
49.813
49.864
49.899
49.912
49.95
50.004
50.057
50.083
50.111
50.155
50.229
50.29
50.342
50.364
50.384
50.415
50.476
50.562
50.642
50.696
50.718
50.718
50.731
50.757
50.806
50.844
50.881
50.912
50.955
51.021
51.107
51.176
51.219
51.221
51.237
51.262
51.321
51.387
51.443
51.49
51.524
51.569
51.59
51.604
51.611
51.645
51.694
51.736
51.77
51.785
51.807
51.815
51.831
51.85
51.885
51.918
51.945
51.942
51.92
51.873
51.838
51.82
51.849
51.899
51.931
51.928
51.89
51.869
51.852
51.861
51.861
51.854
51.826
51.783
51.747
51.705
51.684
51.656
51.659
51.639
51.617
51.566
51.521
51.468
51.397
51.309
51.217
51.155
51.095
51.028
50.938
50.854
50.8
50.745
50.68
50.572
50.457
50.346
50.24
50.13
50.005
49.886
49.787
49.697
49.602
49.468
49.32
49.165
49.02
48.871
48.723
48.586
48.452
48.318
48.17
48.019
47.851
47.673
47.482
47.308
47.137
46.958
46.753
46.548
46.376
46.214
46.05
45.845
45.62
45.378
45.143
44.927
44.694
44.445
44.188
43.969
43.764
43.528
43.245
42.953
42.687
42.444
42.202
41.962
41.71
41.435
41.122
40.798
40.482
40.189
39.892
39.586
39.262
38.959
38.652
38.353
38.022
37.689
37.329
37.007
36.726
36.466
36.158
35.778
35.41
35.042
34.715
34.385
34.101
33.798
33.475
33.119
32.797
32.49
32.198
31.875
31.562
31.239
30.923
30.59
30.288
29.984
29.676
29.315
28.956
28.621
28.333
28.056
27.773
27.458
27.112
26.77
26.467
26.244
26.031
25.827
25.564
25.275
24.951
24.638
24.353
24.102
23.88
23.666
23.445
23.217
22.995
22.78
22.573
22.372
22.196
22.039
21.876
21.691
21.48
21.297
21.129
20.989
20.828
20.68
20.556
20.463
20.364
20.233
20.098
19.964
19.857
19.746
19.639
19.526
19.418
19.34
19.278
19.229
19.162
19.084
19.003
18.934
18.883
18.844
18.816
18.793
18.767
18.74
18.71
18.686
18.666
18.653
18.658
18.666
18.689
18.693
18.701
18.692
18.706
18.742
18.792
18.819
18.817
18.811
18.844
18.915
19.017
19.104
19.18
19.247
19.321
19.399
19.475
19.564
19.658
19.757
19.834
19.91
19.997
20.109
20.238
20.387
20.568
20.753
20.921
21.061
21.202
21.353
21.493
21.638
21.789
21.97
22.168
22.339
22.514
22.686
22.944
23.213
23.461
23.638
23.771
23.941
24.139
24.374
24.606
24.89
25.225
25.557
25.792
25.975
26.149
26.369
26.57
26.779
27.021
27.342
27.706
28.087
28.395
28.678
28.889
29.097
29.273
29.469
29.718
30.034
30.388
30.697
30.936
31.165
31.479
31.862
32.225
32.526
32.789
33.064
33.334
33.586
33.863
34.159
34.49
34.786
35.059
35.295
35.505
35.726
35.94
36.172
36.362
36.57
36.794
37.075
37.371
37.677
37.978
38.235
38.472
38.662
38.855
38.992
39.131
39.276
39.476
39.688
39.92
40.151
40.372
40.551
40.694
40.84
40.994
41.118
41.215
41.275
41.385
41.542
41.741
41.904
42.007
42.094
42.203
42.34
42.468
42.554
42.617
42.656
42.712
42.761
42.797
42.82
42.849
42.891
42.942
42.996
43.035
43.054
43.043
43.036
43.024
43.024
43.024
43.032
43.032
43.008
42.95
42.876
42.809
42.762
42.728
42.689
42.632
42.556
42.461
42.366
42.269
42.187
42.098
42.004
41.888
41.772
41.665
41.57
41.472
41.359
41.231
41.091
40.948
40.811
40.685
40.562
40.435
40.308
40.183
40.056
39.918
39.774
39.628
39.486
39.344
39.21
39.085
38.967
38.842
38.704
38.544
38.384
38.238
38.132
38.04
37.954
37.854
37.75
37.629
37.495
37.369
37.261
37.184
37.103
37.021
36.93
36.831
36.726
36.611
36.51
36.428
36.367
36.314
36.258
36.21
36.168
36.128
36.068
35.999
35.921
35.859
35.817
35.791
35.773
35.75
35.738
35.725
35.712
35.695
35.684
35.676
35.663
35.642
35.617
35.596
35.58
35.575
35.573
35.564
35.556
35.563
35.596
35.628
35.647
35.645
35.647
35.654
35.671
35.674
35.687
35.701
35.734
35.757
35.771
35.775
35.777
35.803
35.834
35.877
35.894
35.91
35.914
35.932
35.951
35.965
35.967
35.958
35.957
35.967
35.983
36.013
36.042
36.079
36.111
36.152
36.186
36.21
36.208
36.203
36.19
36.195
36.193
36.195
36.19
36.198
36.224
36.258
36.284
36.29
36.294
36.298
36.308
36.319
36.328
36.341
36.354
36.374
36.393
36.402
36.397
36.392
36.405
36.436
36.466
36.484
36.493
36.51
36.535
36.562
36.589
36.615
36.635
36.645
36.653
36.676
36.708
36.738
36.751
36.747
36.745
36.748
36.763
36.783
36.809
36.829
36.848
36.863
36.888
36.917
36.948
36.971
36.988
36.998
37.004
37.012
37.017
37.025
37.035
37.059
37.093
37.129
37.156
37.169
37.174
37.179
37.185
37.208
37.248
37.301
37.325
37.325
37.315
37.326
37.342
37.348
37.342
37.344
37.358
37.371
37.372
37.365
37.361
37.362
37.37
37.385
37.394
37.398
37.398
37.414
37.446
37.469
37.487
37.481
37.48
37.464
37.465
37.472
37.488
37.501
37.522
37.552
37.573
37.579
37.577
37.591
37.619
37.648
37.669
37.684
37.705
37.725
37.745
37.755
37.781
37.814
37.862
37.905
37.946
37.981
38.004
38.023
38.04
38.067
38.091
38.113
38.12
38.141
38.166
38.212
38.249
38.283
38.302
38.331
38.369
38.415
38.454
38.495
38.526
38.56
38.585
38.626
38.681
38.737
38.776
38.797
38.823
38.849
38.884
38.922
38.973
39.034
39.1
39.168
39.226
39.276
39.331
39.392
39.461
39.516
39.559
39.586
39.613
39.642
39.675
39.698
39.722
39.754
39.799
39.862
39.929
40.009
40.081
40.142
40.172
40.186
40.199
40.231
40.291
40.35
40.396
40.413
40.432
40.467
40.509
40.547
40.578
40.615
40.665
40.697
40.71
40.709
40.712
40.723
40.72
40.719
40.708
40.724
40.739
40.778
40.812
40.851
40.868
40.86
40.834
40.801
40.782
40.773
40.769
40.742
40.709
40.665
40.636
40.596
40.561
40.522
40.5
40.477
40.447
40.394
40.325
40.252
40.193
40.14
40.082
40.012
39.947
39.899
39.876
39.863
39.834
39.786
39.706
39.621
39.526
39.449
39.376
39.313
39.237
39.146
39.044
38.945
38.868
38.794
38.729
38.648
38.574
38.499
38.432
38.363
38.278
38.182
38.087
38.01
37.957
37.905
37.843
37.771
37.712
37.67
37.62
37.556
37.477
37.411
37.345
37.276
37.201
37.143
37.098
37.07
37.03
36.996
36.942
36.906
36.863
36.836
36.802
36.771
36.735
36.697
36.671
36.653
36.658
36.661
36.65
36.616
36.573
36.546
36.537
36.537
36.538
36.523
36.508
36.49
36.493
36.501
36.51
36.525
36.541
36.558
36.574
36.58
36.593
36.6
36.632
36.667
36.709
36.742
36.773
36.804
36.829
36.876
36.93
36.995
37.036
37.063
37.084
37.119
37.167
37.228
37.285
37.337
37.379
37.429
37.494
37.571
37.651
37.729
37.801
37.862
37.904
37.946
38.011
38.1
38.206
38.29
38.353
38.399
38.439
38.502
38.576
38.68
38.756
38.821
38.868
38.956
39.064
39.183
39.263
39.311
39.351
39.411
39.494
39.571
39.63
39.683
39.757
39.858
39.965
40.056
40.129
40.187
40.243
40.287
40.329
40.376
40.442
40.509
40.565
40.603
40.629
40.661
40.699
40.741
40.777
40.803
40.832
40.862
40.898
40.937
40.973
40.998
40.991
40.99
40.995
41.031
41.053
41.075
41.085
41.092
41.079
41.038
40.984
40.937
40.92
40.916
40.911
40.887
40.86
40.827
40.8
40.764
40.733
40.703
40.686
40.655
40.631
40.582
40.544
40.486
40.447
40.402
40.35
40.277
40.191
40.12
40.06
40.023
39.988
39.954
39.902
39.842
39.781
39.719
39.661
39.596
39.542
39.484
39.421
39.342
39.257
39.18
39.134
39.106
39.085
39.043
38.988
38.926
38.868
38.82
38.768
38.716
38.66
38.62
38.594
38.573
38.533
38.477
38.417
38.375
38.338
38.314
38.288
38.271
38.241
38.212
38.19
38.185
38.185
38.176
38.16
38.148
38.135
38.116
38.086
38.071
38.08
38.115
38.146
38.162
38.163
38.171
38.189
38.21
38.233
38.256
38.279
38.297
38.312
38.332
38.354
38.385
38.419
38.463
38.507
38.561
38.621
38.687
38.726
38.75
38.747
38.776
38.812
38.878
38.926
38.964
38.984
39.011
39.058
39.123
39.195
39.269
39.354
39.424
39.485
39.512
39.544
39.569
39.615
39.673
39.724
39.77
39.804
39.858
39.907
39.964
40.013
40.083
40.152
40.21
40.248
40.284
40.329
40.371
40.42
40.464
40.519
40.545
40.567
40.572
40.608
40.646
40.69
40.709
40.721
40.742
40.782
40.826
40.859
40.881
40.917
40.963
41.023
41.061
41.076
41.069
41.068
41.073
41.077
41.066
41.05
41.039
41.039
41.048
41.055
41.071
41.085
41.099
41.096
41.084
41.077
41.075
41.078
41.064
41.045
41.016
40.994
40.968
40.95
40.934
40.93
40.92
40.9
40.872
40.843
40.833
40.839
40.852
40.846
40.814
40.779
40.747
40.727
40.694
40.658
40.617
40.585
40.581
40.591
40.601
40.583
40.544
40.504
40.466
40.439
40.411
40.395
40.394
40.402
40.411
40.389
40.347
40.304
40.276
40.263
40.242
40.223
40.198
40.182
40.17
40.157
40.142
40.118
40.101
40.087
40.064
40.043
40.012
39.993
39.986
39.995
40.02
40.038
40.048
40.033
40.005
39.982
39.971
39.965
39.962
39.962
39.984
40.006
40.019
40.007
39.994
39.991
40.012
40.037
40.049
40.048
40.038
40.038
40.033
40.039
40.045
40.063
40.078
40.101
40.135
40.166
40.184
40.186
40.191
40.206
40.216
40.232
40.252
40.29
40.32
40.349
40.375
40.412
40.442
40.471
40.506
40.546
40.589
40.624
40.653
40.679
40.699
40.711
40.724
40.754
40.808
40.859
40.879
40.88
40.877
40.897
40.909
40.934
40.968
41.03
41.083
41.124
41.151
41.173
41.194
41.208
41.23
41.248
41.278
41.298
41.334
41.353
41.374
41.369
41.378
41.4
41.435
41.46
41.482
41.511
41.548
41.575
41.582
41.592
41.599
41.622
41.633
41.646
41.657
41.66
41.648
41.611
41.584
41.586
41.621
41.656
41.668
