Tektronix:  IConnect
Version 6.1.0

File Created: April 06, 2017 at 12:33PM
Created By: Tek_Local_Admin

Format: Waveform
Type: Time Domain

== Begin Header ==

Type: Impedance

Samples: 16000
Step Size: 313f
First Step: 0
Reference Impedance: 50

== End Header ==

Data:
50
50.016
50.027
50.002
49.976
49.965
49.961
49.955
49.96
49.977
49.99
49.973
49.963
49.958
49.989
50.004
50.023
50.009
49.997
49.973
49.963
49.956
49.964
49.953
49.955
49.956
49.979
49.989
49.986
49.987
50.004
50.019
50.021
49.987
49.961
49.944
49.965
49.989
50.022
50.029
50.021
49.994
49.981
49.985
49.996
50
49.993
49.99
49.987
49.983
49.971
49.962
49.975
50.008
50.059
50.097
50.115
50.092
50.064
50.046
50.05
50.048
50.025
49.998
49.984
49.985
49.984
49.969
49.951
49.935
49.927
49.927
49.939
49.956
49.96
49.955
49.952
49.969
49.99
50.011
50.016
50.016
50.013
50.012
50.005
49.997
49.996
50.003
50.005
49.994
49.989
50.003
50.023
50.035
50.035
50.029
50.032
50.036
50.055
50.057
50.047
50.02
50.004
50.012
50.023
50.03
50.02
50.012
50.007
50.007
50.003
49.999
49.998
50.011
50.005
49.975
49.928
49.915
49.941
49.975
49.987
49.987
49.989
50.001
50.007
50.02
50.031
50.041
50.034
50.029
50.038
50.063
50.082
50.093
50.088
50.083
50.074
50.085
50.097
50.101
50.074
50.028
49.986
49.977
49.999
50.025
50.036
50.03
50.024
50.018
50.018
50.027
50.042
50.056
50.07
50.075
50.07
50.05
50.05
50.069
50.09
50.079
50.039
49.994
49.964
49.966
49.991
50.028
50.046
50.059
50.066
50.08
50.085
50.086
50.08
50.061
50.03
50.008
49.988
49.984
49.968
49.971
49.965
49.962
49.947
49.943
49.957
49.992
50.033
50.06
50.067
50.061
50.065
50.074
50.083
50.075
50.061
50.049
50.041
50.041
50.051
50.083
50.106
50.109
50.078
50.042
50.018
50.021
50.039
50.055
50.059
50.058
50.069
50.077
50.078
50.067
50.056
50.058
50.061
50.074
50.068
50.063
50.036
50.021
50.007
50.021
50.039
50.055
50.053
50.041
50.024
50.009
49.993
49.979
49.972
49.98
49.996
50.009
50.01
50.011
50.022
50.034
50.042
50.035
50.032
50.025
50.022
50.008
50.007
50.005
50.008
50.001
49.997
49.998
49.99
49.983
49.976
49.977
49.965
49.955
49.948
49.965
49.982
50.005
50.023
50.025
50.008
49.988
49.997
50.028
50.047
50.031
49.99
49.968
49.977
50.016
50.039
50.03
49.999
49.984
50.002
50.037
50.062
50.064
50.048
50.016
49.979
49.958
49.976
50.016
50.036
50.017
49.984
49.957
49.96
49.968
49.998
50.015
50.044
50.067
50.088
50.091
50.076
50.051
50.031
50.008
49.999
50.004
50.033
50.062
50.07
50.058
50.033
50.015
49.984
49.952
49.937
49.964
50.017
50.056
50.056
50.026
49.994
49.968
49.954
49.931
49.921
49.92
49.951
49.983
50.017
50.029
50.027
50.021
50.023
50.036
50.032
50.005
49.967
49.946
49.951
49.973
49.991
49.997
49.994
49.985
49.97
49.947
49.922
49.906
49.909
49.932
49.956
49.969
49.979
49.994
50.004
50.002
49.989
49.989
49.997
50.005
50.008
49.999
49.992
49.986
49.986
49.978
49.961
49.945
49.949
49.973
49.996
49.999
49.987
49.985
49.99
50.004
50.002
50.006
49.997
50.002
50.007
50.019
50.022
50.029
50.036
50.039
50.027
50.028
50.05
50.073
50.07
50.042
50.023
50.023
50.01
49.972
49.92
49.905
49.928
49.96
49.975
49.969
49.972
49.983
50.004
50.007
50
49.987
49.979
49.986
49.99
49.998
49.991
49.984
49.962
49.946
49.94
49.954
49.973
49.986
49.989
49.988
49.977
49.965
49.954
49.966
49.98
50.004
50.003
50
49.978
49.973
49.977
50.008
50.046
50.068
50.056
50.023
50.004
50.008
50.02
50.033
50.034
50.035
50.03
50.038
50.047
50.06
50.06
50.053
50.031
50.005
49.994
50.012
50.041
50.053
50.03
49.992
49.961
49.952
49.963
49.982
49.996
49.999
50
50.004
50.009
50.015
50.027
50.044
50.046
50.042
50.015
49.999
49.976
49.986
49.999
50.023
50.041
50.058
50.073
50.061
50.029
49.992
49.97
49.965
49.969
49.993
50.023
50.033
50
49.953
49.942
49.977
50.038
50.07
50.081
50.069
50.051
50.022
49.982
49.964
49.976
50.024
50.054
50.058
50.03
50.013
50.005
50.011
50.011
50.002
49.991
49.98
49.976
49.962
49.955
49.952
49.959
49.958
49.968
49.967
49.96
49.921
49.902
49.901
49.924
49.941
49.959
49.992
50.029
50.047
50.019
49.974
49.949
49.959
49.985
49.999
49.999
49.994
50.006
50.016
50.017
49.981
49.95
49.931
49.945
49.952
49.958
49.945
49.939
49.943
49.96
49.962
49.946
49.925
49.934
49.951
49.975
49.989
50.007
50.017
50.016
50.007
50.007
50.016
50.03
50.034
50.029
49.998
49.95
49.915
49.924
49.965
50.001
50.019
50.028
50.034
50.029
50.013
49.987
49.967
49.963
49.98
49.996
49.993
49.968
49.949
49.944
49.947
49.949
49.942
49.951
49.956
49.974
49.978
49.997
50.001
50.004
49.986
49.976
49.971
49.973
49.963
49.946
49.93
49.934
49.956
49.982
50.005
50.006
49.993
49.96
49.94
49.938
49.955
49.946
49.931
49.919
49.946
49.983
50.026
50.056
50.064
50.054
50.041
50.043
50.05
50.059
50.065
50.057
50.032
50.005
50.002
50.028
50.047
50.048
50.028
50.023
50.009
50.006
49.989
49.994
50.003
50.025
50.046
50.056
50.055
50.039
50.016
49.999
50.003
50.032
50.063
50.068
50.054
50.051
50.084
50.112
50.125
50.102
50.077
50.051
50.038
50.04
50.043
50.059
50.067
50.07
50.051
50.022
50.003
49.998
50.006
50.006
50.012
50.018
50.05
50.07
50.073
50.04
50.009
50.006
50.016
50.027
50.014
50.003
49.99
49.995
50.008
50.022
50.02
50.001
49.987
49.989
50.017
50.047
50.053
50.026
49.988
49.991
50.019
50.059
50.061
50.059
50.051
50.053
50.055
50.052
50.051
50.044
50.042
50.047
50.06
50.083
50.098
50.108
50.106
50.102
50.108
50.111
50.12
50.091
50.062
50.024
50.03
50.053
50.068
50.057
50.027
50.012
50.022
50.053
50.082
50.094
50.08
50.071
50.048
50.047
50.05
50.078
50.09
50.09
50.07
50.06
50.041
50.023
49.992
49.96
49.932
49.933
49.965
50.002
50.022
50.027
50.036
50.049
50.074
50.092
50.105
50.098
50.083
50.061
50.045
50.042
50.064
50.09
50.106
50.095
50.072
50.048
50.037
50.035
50.051
50.061
50.075
50.084
50.119
50.158
50.178
50.173
50.142
50.114
50.088
50.073
50.063
50.051
50.041
50.04
50.044
50.054
50.059
50.067
50.066
50.069
50.076
50.098
50.113
50.119
50.095
50.063
50.022
49.997
49.994
50.011
50.033
50.042
50.039
50.035
50.027
50.01
49.987
49.973
49.986
50.011
50.025
50.035
50.046
50.068
50.075
50.066
50.064
50.067
50.073
50.065
50.065
50.064
50.059
50.043
50.032
50.027
50.017
50.021
50.043
50.091
50.121
50.129
50.117
50.107
50.092
50.082
50.075
50.072
50.052
50.017
49.994
49.987
50.004
50.014
50.027
50.031
50.041
50.056
50.074
50.099
50.099
50.088
50.053
50.037
50.045
50.064
50.078
50.066
50.056
50.048
50.065
50.079
50.081
50.07
50.08
50.103
50.113
50.092
50.067
50.056
50.061
50.07
50.081
50.096
50.107
50.114
50.098
50.071
50.032
50.016
50.026
50.064
50.091
50.106
50.094
50.078
50.044
50.009
49.989
49.989
50.009
50.018
50.028
50.034
50.036
50.026
50.012
50.015
50.053
50.11
50.165
50.175
50.15
50.109
50.08
50.067
50.074
50.085
50.104
50.1
50.094
50.079
50.073
50.063
50.054
50.035
50.026
50.016
50.032
50.049
50.074
50.078
50.079
50.063
50.051
50.048
50.059
50.089
50.107
50.129
50.127
50.115
50.083
50.058
50.059
50.076
50.099
50.111
50.121
50.119
50.116
50.096
50.086
50.064
50.065
50.065
50.07
50.062
50.055
50.066
50.097
50.134
50.164
50.175
50.166
50.143
50.11
50.09
50.085
50.103
50.124
50.139
50.14
50.142
50.148
50.169
50.18
50.182
50.162
50.146
50.131
50.118
50.112
50.122
50.159
50.184
50.188
50.161
50.155
50.171
50.194
50.201
50.192
50.192
50.183
50.157
50.103
50.053
50.021
50.007
50.006
50.013
50.029
50.049
50.081
50.106
50.114
50.097
50.077
50.064
50.052
50.041
50.024
50.012
50.001
49.991
49.987
49.99
50.008
50.024
50.033
50.027
50.022
50.002
49.971
49.94
49.925
49.92
49.909
49.886
49.881
49.877
49.895
49.894
49.898
49.879
49.872
49.866
49.879
49.886
49.895
49.891
49.889
49.888
49.9
49.914
49.919
49.907
49.888
49.874
49.864
49.856
49.838
49.829
49.828
49.832
49.833
49.822
49.815
49.808
49.821
49.842
49.885
49.897
49.893
49.871
49.869
49.885
49.896
49.914
49.919
49.927
49.925
49.924
49.919
49.911
49.904
49.904
49.915
49.932
49.952
49.96
49.967
49.972
49.993
50.005
50.01
50.008
50.006
50.003
49.99
49.988
49.988
50.004
50.006
50.014
50.028
50.075
50.127
50.169
50.162
50.143
50.117
50.121
50.128
50.146
50.15
50.15
50.145
50.148
50.141
50.131
50.118
50.131
50.156
50.179
50.184
50.182
50.176
50.173
50.17
50.18
50.199
50.216
50.233
50.251
50.279
50.298
50.301
50.288
50.28
50.293
50.308
50.312
50.288
50.273
50.262
50.272
50.27
50.266
50.242
50.229
50.222
50.229
50.242
50.27
50.303
50.32
50.313
50.285
50.249
50.211
50.195
50.205
50.237
50.268
50.287
50.295
50.281
50.265
50.235
50.223
50.204
50.202
50.202
50.219
50.237
50.249
50.253
50.251
50.251
50.239
50.22
50.215
50.229
50.258
50.26
50.244
50.218
50.198
50.191
50.187
50.194
50.196
50.191
50.171
50.147
50.135
50.144
50.155
50.165
50.154
50.144
50.129
50.131
50.135
50.14
50.144
50.15
50.156
50.15
50.136
50.136
50.154
50.193
50.205
50.194
50.154
50.135
50.128
50.134
50.128
50.119
50.11
50.11
50.106
50.102
50.099
50.12
50.146
50.173
50.18
50.19
50.197
50.199
50.172
50.125
50.088
50.088
50.128
50.174
50.199
50.196
50.175
50.159
50.159
50.18
50.199
50.2
50.191
50.18
50.178
50.183
50.203
50.227
50.235
50.227
50.204
50.189
50.179
50.189
50.216
50.247
50.257
50.226
50.184
50.155
50.164
50.18
50.202
50.208
50.205
50.185
50.176
50.182
50.202
50.207
50.219
50.236
50.274
50.293
50.304
50.3
50.293
50.282
50.286
50.311
50.333
50.332
50.311
50.283
50.254
50.229
50.209
50.2
50.192
50.197
50.209
50.225
50.237
50.242
50.267
50.293
50.302
50.28
50.251
50.243
50.249
50.263
50.276
50.294
50.299
50.301
50.295
50.293
50.283
50.276
50.276
50.281
50.278
50.273
50.275
50.294
50.32
50.337
50.327
50.301
50.28
50.274
50.292
50.322
50.365
50.378
50.368
50.329
50.301
50.277
50.271
50.278
50.304
50.339
50.361
50.367
50.35
50.331
50.307
50.301
50.306
50.326
50.344
50.356
50.355
50.35
50.358
50.374
50.395
50.384
50.363
50.34
50.329
50.338
50.344
50.355
50.344
50.324
50.296
50.272
50.269
50.272
50.285
50.27
50.248
50.217
50.228
50.253
50.275
50.279
50.293
50.331
50.352
50.341
50.315
50.3
50.291
50.275
50.257
50.27
50.273
50.273
50.233
50.226
50.231
50.264
50.278
50.292
50.306
50.32
50.322
50.314
50.309
50.314
50.306
50.306
50.286
50.283
50.269
50.272
50.274
50.261
50.25
50.237
50.248
50.266
50.291
50.302
50.288
50.239
50.201
50.182
50.211
50.226
50.252
50.249
50.249
50.24
50.245
50.256
50.259
50.238
50.213
50.191
50.188
50.184
50.184
50.183
50.197
50.207
50.222
50.222
50.213
50.178
50.139
50.106
50.106
50.132
50.171
50.186
50.186
50.176
50.182
50.173
50.154
50.133
50.135
50.143
50.149
50.14
50.127
50.096
50.068
50.055
50.076
50.106
50.131
50.132
50.117
50.099
50.087
50.087
50.074
50.063
50.059
50.075
50.08
50.053
50.002
49.972
49.959
49.949
49.917
49.903
49.915
49.954
49.966
49.959
49.919
49.886
49.866
49.86
49.844
49.808
49.775
49.757
49.743
49.731
49.71
49.709
49.703
49.711
49.692
49.675
49.632
49.59
49.541
49.518
49.518
49.531
49.525
49.503
49.467
49.451
49.428
49.409
49.369
49.348
49.322
49.315
49.298
49.28
49.25
49.213
49.182
49.148
49.118
49.083
49.059
49.042
49.037
49.017
48.979
48.917
48.852
48.798
48.766
48.759
48.755
48.751
48.739
48.728
48.688
48.638
48.58
48.548
48.525
48.509
48.508
48.502
48.498
48.461
48.416
48.369
48.351
48.345
48.323
48.281
48.242
48.227
48.214
48.188
48.151
48.127
48.119
48.107
48.073
48.02
47.964
47.929
47.925
47.948
47.984
48.002
48.006
47.989
47.967
47.948
47.931
47.93
47.933
47.942
47.939
47.941
47.972
48.025
48.067
48.066
48.046
48.03
48.039
48.058
48.09
48.12
48.151
48.166
48.199
48.246
48.32
48.379
48.425
48.439
48.459
48.49
48.549
48.602
48.641
48.673
48.705
48.753
48.803
48.857
48.912
48.96
49.01
49.053
49.101
49.166
49.23
49.292
49.332
49.385
49.459
49.555
49.648
49.711
49.757
49.806
49.873
49.963
50.046
50.129
50.199
50.277
50.363
50.426
50.479
50.512
50.564
50.624
50.696
50.775
50.855
50.944
51.026
51.117
51.177
51.23
51.256
51.294
51.347
51.415
51.484
51.533
51.565
51.614
51.67
51.752
51.798
51.838
51.865
51.915
51.975
52.02
52.053
52.078
52.105
52.133
52.146
52.159
52.175
52.206
52.249
52.28
52.294
52.282
52.267
52.251
52.248
52.239
52.228
52.207
52.207
52.207
52.208
52.208
52.215
52.205
52.151
52.09
52.057
52.054
52.051
52.027
52.005
51.978
51.944
51.897
51.833
51.771
51.708
51.662
51.606
51.547
51.481
51.434
51.378
51.325
51.254
51.189
51.098
50.974
50.826
50.696
50.604
50.545
50.48
50.418
50.335
50.25
50.128
49.987
49.815
49.658
49.524
49.408
49.268
49.1
48.943
48.827
48.744
48.646
48.513
48.347
48.165
47.988
47.814
47.628
47.426
47.206
47.014
46.832
46.692
46.54
46.375
46.162
45.943
45.74
45.548
45.339
45.12
44.899
44.697
44.465
44.219
43.956
43.723
43.495
43.254
43.002
42.748
42.51
42.273
42.032
41.771
41.481
41.2
40.931
40.686
40.426
40.161
39.905
39.64
39.347
39.022
38.712
38.442
38.18
37.906
37.618
37.314
37.015
36.692
36.367
36.014
35.682
35.371
35.094
34.812
34.557
34.296
34.047
33.738
33.397
33.049
32.753
32.505
32.275
32.012
31.74
31.441
31.147
30.849
30.569
30.306
30.003
29.711
29.391
29.128
28.867
28.651
28.436
28.228
28.01
27.768
27.511
27.25
27.033
26.842
26.663
26.449
26.214
25.986
25.799
25.645
25.492
25.343
25.182
25.021
24.847
24.697
24.589
24.513
24.424
24.289
24.132
23.989
23.899
23.84
23.801
23.746
23.686
23.627
23.584
23.556
23.521
23.49
23.451
23.433
23.43
23.456
23.495
23.538
23.579
23.617
23.667
23.726
23.803
23.894
23.993
24.095
24.193
24.296
24.404
24.531
24.66
24.804
24.943
25.113
25.294
25.49
25.657
25.824
25.999
26.232
26.47
26.734
26.981
27.231
27.449
27.632
27.826
28.063
28.4
28.759
29.14
29.458
29.766
30.055
30.382
30.74
31.124
31.527
31.927
32.322
32.673
33.016
33.305
33.598
33.883
34.316
34.905
35.565
36.111
36.497
36.848
37.237
37.637
38.012
38.394
38.789
39.17
39.535
39.887
40.301
40.71
41.25
41.788
42.339
42.756
43.115
43.514
43.974
44.551
45.059
45.517
45.805
46.085
46.4
46.778
47.206
47.607
48.005
48.288
48.519
48.696
48.937
49.122
49.368
49.593
49.938
50.27
50.587
50.832
50.986
51.112
51.229
51.389
51.597
51.744
51.85
51.854
51.862
51.818
51.828
51.849
51.906
51.868
51.803
51.715
51.689
51.676
51.646
51.555
51.42
51.275
51.158
51.043
50.913
50.739
50.545
50.355
50.189
50.04
49.888
49.715
49.518
49.313
49.114
48.929
48.728
48.524
48.309
48.12
47.923
47.712
47.464
47.205
46.959
46.737
46.55
46.364
46.173
45.934
45.677
45.421
45.205
45.032
44.866
44.693
44.485
44.279
44.08
43.913
43.726
43.5
43.27
43.079
42.963
42.863
42.76
42.624
42.455
42.287
42.106
41.96
41.799
41.659
41.513
41.408
41.321
41.254
41.178
41.102
41.012
40.913
40.808
40.724
40.653
40.588
40.515
40.446
40.383
40.329
40.291
40.265
40.241
40.204
40.176
40.152
40.142
40.126
40.12
40.106
40.09
40.062
40.054
40.052
40.07
40.086
40.108
40.118
40.126
40.131
40.15
40.179
40.236
40.307
40.364
40.384
40.384
40.391
40.422
40.467
40.53
40.585
40.636
40.666
40.693
40.73
40.764
40.828
40.89
40.983
41.057
41.127
41.204
41.293
41.394
41.461
41.503
41.514
41.545
41.606
41.714
41.813
41.891
41.928
41.963
41.993
42.053
42.132
42.251
42.352
42.439
42.494
42.545
42.582
42.613
42.648
42.698
42.743
42.783
42.833
42.909
42.992
43.032
43.048
43.055
43.093
43.108
43.136
43.145
43.178
43.194
43.212
43.232
43.256
43.28
43.288
43.284
43.28
43.272
43.273
43.266
43.279
43.292
43.315
43.31
43.285
43.226
43.16
43.104
43.081
43.079
43.073
43.039
42.98
42.914
42.856
42.814
42.759
42.705
42.636
42.578
42.533
42.502
42.484
42.442
42.382
42.285
42.182
42.087
42.013
41.961
41.912
41.86
41.801
41.74
41.671
41.6
41.517
41.45
41.365
41.279
41.173
41.086
41.018
40.98
40.945
40.912
40.864
40.813
40.755
40.699
40.661
40.624
40.593
40.558
40.528
40.486
40.426
40.366
40.324
40.293
40.28
40.269
40.261
40.229
40.197
40.182
40.202
40.22
40.229
40.218
40.224
40.223
40.215
40.201
40.211
40.238
40.267
40.281
40.311
40.353
40.41
40.456
40.491
40.523
40.555
40.592
40.628
40.661
40.691
40.722
40.769
40.824
40.883
40.938
40.983
41.03
41.066
41.11
41.158
41.227
41.314
41.392
41.455
41.489
41.519
41.547
41.572
41.605
41.646
41.713
41.764
41.789
41.779
41.769
41.777
41.816
41.873
41.927
41.956
41.965
41.98
42
42.045
42.086
42.12
42.116
42.093
42.067
42.048
42.027
42.003
41.98
41.958
41.934
41.902
41.892
41.882
41.875
41.843
41.809
41.77
41.734
41.701
41.673
41.654
41.63
41.591
41.526
41.443
41.35
41.261
41.174
41.102
41.03
40.978
40.92
40.87
40.805
40.749
40.695
40.649
40.586
40.506
40.408
40.321
40.24
40.175
40.092
40.003
39.905
39.822
39.741
39.657
39.579
39.508
39.46
39.394
39.321
39.228
39.16
39.111
39.082
39.038
38.976
38.912
38.868
38.841
38.796
38.732
38.653
38.59
38.543
38.507
38.488
38.479
38.48
38.459
38.425
38.383
38.357
38.328
38.296
38.256
38.24
38.241
38.258
38.27
38.271
38.277
38.292
38.322
38.344
38.353
38.366
38.384
38.415
38.426
38.431
38.432
38.449
38.475
38.502
38.54
38.576
38.625
38.669
38.73
38.786
38.844
38.887
38.918
38.946
38.974
39.024
39.077
39.137
39.187
39.236
39.292
39.356
39.435
39.513
39.584
39.651
39.71
39.77
39.804
39.842
39.885
39.958
40.041
40.118
40.185
40.243
40.301
40.359
40.417
40.479
40.537
40.588
40.623
40.652
40.678
40.707
40.732
40.758
40.789
40.83
40.867
40.891
40.906
40.922
40.935
40.959
41
41.054
41.098
41.116
41.124
41.133
41.14
41.141
41.124
41.109
41.084
41.074
41.08
41.105
41.121
41.114
41.103
41.087
41.075
41.053
41.034
41.017
41.002
40.988
40.968
40.946
40.905
40.853
40.782
40.723
40.674
40.65
40.632
40.611
40.573
40.512
40.465
40.429
40.405
40.368
40.325
40.276
40.231
40.186
40.16
40.139
40.126
40.088
40.035
39.965
39.913
39.87
39.845
39.816
39.79
39.76
39.722
39.689
39.644
39.606
39.554
39.515
39.47
39.434
39.395
39.341
39.266
39.186
39.134
39.112
39.101
39.084
39.071
39.065
39.064
39.057
39.044
39.028
39.014
39.003
38.992
38.978
38.962
38.947
38.936
38.909
38.883
38.848
38.834
38.82
38.815
38.817
38.827
38.835
38.825
38.812
38.807
38.817
38.829
38.837
38.84
38.844
38.853
38.866
38.888
38.912
38.931
38.935
38.935
38.939
38.965
38.996
39.025
39.047
39.073
39.105
39.13
39.152
39.164
39.182
39.211
39.25
39.285
39.307
39.324
39.343
39.361
39.387
39.42
39.464
39.501
39.53
39.553
39.577
39.594
39.608
39.628
39.662
39.694
39.713
39.724
39.743
39.778
39.817
39.854
39.886
39.917
39.94
39.943
39.935
39.924
39.939
39.972
40.015
40.037
40.046
40.045
40.042
40.028
40.011
40.004
40.008
40.013
40.021
40.034
40.048
40.05
40.045
40.04
40.044
40.041
40.043
40.038
40.028
40.006
39.989
39.994
40.003
40.006
39.981
39.94
39.898
39.87
39.855
39.831
39.804
39.771
39.75
39.724
39.703
39.676
39.662
39.644
39.621
39.583
39.545
39.522
39.502
39.482
39.459
39.438
39.418
39.389
39.365
39.349
39.339
39.331
39.308
39.289
39.257
39.24
39.221
39.21
39.181
39.148
39.111
39.104
39.114
39.125
39.124
39.107
39.097
39.091
39.1
39.108
39.12
39.134
39.157
39.166
39.158
39.142
39.14
39.155
39.169
39.194
39.221
39.248
39.249
39.24
39.231
39.24
39.253
39.27
39.29
39.314
39.348
39.38
39.419
39.455
39.488
39.507
39.517
39.539
39.581
39.637
39.69
39.729
39.758
39.793
39.832
39.879
39.913
39.937
39.952
39.975
40.018
40.056
40.088
40.104
40.127
40.146
40.175
40.211
40.26
40.307
40.346
40.373
40.396
40.416
40.446
40.479
40.5
40.511
40.51
40.528
40.547
40.572
40.581
40.593
40.597
40.61
40.616
40.622
40.62
40.622
40.631
40.645
40.659
40.677
40.678
40.66
40.63
40.613
40.612
40.614
40.614
40.611
40.599
40.578
40.548
40.524
40.493
40.463
40.43
40.418
40.411
40.407
40.384
40.363
40.336
40.316
40.283
40.247
40.205
40.161
40.129
40.097
40.077
40.044
40.003
39.952
39.901
39.859
39.818
39.782
39.74
39.694
39.653
39.623
39.605
39.579
39.546
39.513
39.484
39.46
39.426
39.394
39.359
39.33
39.307
39.293
39.278
39.247
39.201
39.164
39.133
39.108
39.064
39.018
38.979
38.96
38.948
38.93
38.914
38.907
38.908
38.904
38.889
38.875
38.875
38.897
38.919
38.923
38.92
38.918
38.923
38.919
38.908
38.895
38.886
38.891
38.907
38.918
38.911
38.901
38.903
38.928
38.953
38.977
38.976
38.976
38.976
39.003
39.048
39.102
39.154
39.189
39.21
39.212
39.221
39.248
39.299
39.341
39.356
39.355
39.361
39.384
39.416
39.449
39.489
39.529
39.571
39.598
39.627
39.662
39.712
39.759
39.791
39.805
39.81
39.826
39.862
39.907
39.931
39.943
39.956
39.992
40.025
40.05
40.065
40.085
40.115
40.144
40.174
40.195
40.21
40.208
40.207
40.221
40.254
40.299
40.34
40.38
40.404
40.41
40.409
40.416
40.438
40.452
40.455
40.455
40.453
40.461
40.457
40.466
40.47
40.493
40.501
40.499
40.472
40.455
40.443
40.449
40.462
40.486
40.489
40.465
40.434
40.432
40.453
40.475
40.471
40.452
40.434
40.435
40.447
40.449
40.426
40.394
40.36
40.337
40.315
40.293
