Tektronix:  IConnect
Version 6.1.0

File Created: June 02, 2017 at 01:33PM
Created By: Tek_Local_Admin

Format: Waveform
Type: Frequency Domain

== Begin Header ==

Type: Scattering

Data Type: dBMagnitude/Phase
Samples: 10001
Step Size: 2meg
First Step: 0
Reference Impedance: 50

== End Header ==

Data:
-0.75774	0
-0.88657	-17.289
-1.2197	-33.565
-1.6149	-48.2
-1.889	-61.382
-1.9356	-74.166
-1.8082	-87.696
-1.6505	-102.36
-1.5732	-117.79
-1.6037	-133.4
-1.7065	-148.77
-1.8323	-163.86
-1.9646	-178.88
-2.1304	166.08
-2.3659	151.22
-2.6655	136.98
-2.954	123.76
-3.1153	111.38
-3.0818	99.05
-2.9063	85.886
-2.716	71.591
-2.616	56.528
-2.6356	41.331
-2.7326	26.498
-2.8336	12.132
-2.8884	-2.0536
-2.9039	-16.446
-2.9269	-31.204
-3.0002	-46.185
-3.1327	-61.112
-3.3018	-75.79
-3.4774	-90.212
-3.6474	-104.49
-3.8246	-118.71
-4.0231	-132.79
-4.2383	-146.54
-4.4368	-159.83
-4.5736	-172.74
-4.6247	174.43
-4.6044	161.39
-4.548	147.99
-4.4823	134.28
-4.4128	120.34
-4.3375	106.13
-4.2692	91.541
-4.2429	76.522
-4.2972	61.235
-4.4478	46.01
-4.6712	31.182
-4.9156	16.886
-5.1324	2.9456
-5.3172	-10.956
-5.508	-24.978
-5.746	-38.957
-6.0332	-52.518
-6.3189	-65.372
-6.5289	-77.585
-6.6206	-89.576
-6.6137	-101.79
-6.5585	-114.34
-6.4809	-127.1
-6.363	-139.93
-6.1764	-153.04
-5.9334	-166.81
-5.7017	178.49
-5.5716	162.96
-5.6015	147.09
-5.7956	131.52
-6.0959	116.79
-6.4042	103.06
-6.6364	89.994
-6.78	77.033
-6.8879	63.863
-7.0141	50.642
-7.1541	37.759
-7.2427	25.385
-7.2114	13.198
-7.0584	0.5813
-6.8563	-12.865
-6.6916	-27.048
-6.6056	-41.549
-6.5838	-55.969
-6.5773	-70.184
-6.5534	-84.369
-6.5224	-98.789
-6.5282	-113.52
-6.6116	-128.36
-6.7785	-142.94
-6.9922	-156.95
-7.1914	-170.33
-7.3279	176.67
-7.3958	163.7
-7.4243	150.55
-7.444	137.22
-7.4626	123.85
-7.4681	110.47
-7.4517	96.992
-7.4245	83.318
-7.4068	69.44
-7.4121	55.477
-7.4333	41.564
-7.4512	27.728
-7.4551	13.87
-7.4556	-0.11808
-7.4756	-14.223
-7.5279	-28.29
-7.5998	-42.147
-7.6608	-55.757
-7.6875	-69.277
-7.6876	-82.936
-7.696	-96.825
-7.7462	-110.8
-7.8408	-124.57
-7.9439	-137.92
-7.9985	-150.91
-7.9736	-163.88
-7.8892	-177.22
-7.7995	168.92
-7.7503	154.71
-7.7504	140.45
-7.7736	126.3
-7.7879	112.24
-7.7879	98.041
-7.802	83.59
-7.8674	68.992
-7.9968	54.545
-8.1618	40.54
-8.3083	27.031
-8.3948	13.78
-8.4262	0.43686
-8.4428	-13.169
-8.4852	-26.917
-8.5595	-40.537
-8.634	-53.85
-8.6659	-66.935
-8.6376	-80.083
-8.5724	-93.576
-8.5155	-107.48
-8.5012	-121.65
-8.5348	-135.84
-8.5977	-149.91
-8.666	-163.85
-8.7301	-177.76
-8.7981	168.29
-8.8828	154.32
-8.9872	140.47
-9.095	126.79
-9.1878	113.27
-9.259	99.814
-9.3176	86.34
-9.3754	72.88
-9.4317	59.524
-9.4708	46.307
-9.477	33.143
-9.4515	19.87
-9.4157	6.3802
-9.396	-7.2887
-9.4039	-20.993
-9.4305	-34.597
-9.4556	-48.073
-9.4653	-61.507
-9.4636	-75.01
-9.4622	-88.619
-9.4698	-102.28
-9.4821	-115.93
-9.4859	-129.56
-9.4741	-143.27
-9.4567	-157.16
-9.4575	-171.26
-9.4968	174.59
-9.574	160.58
-9.6629	146.9
-9.7261	133.51
-9.741	120.23
-9.716	106.84
-9.6811	93.233
-9.6606	79.522
-9.6566	65.869
-9.6465	52.346
-9.6102	38.855
-9.5489	25.219
-9.4861	11.328
-9.4486	-2.7706
-9.4477	-16.928
-9.4743	-31.01
-9.511	-44.984
-9.5469	-58.907
-9.5836	-72.832
-9.6263	-86.746
-9.6717	-100.59
-9.7045	-114.35
-9.7102	-128.12
-9.6912	-142.06
-9.6728	-156.28
-9.6843	-170.73
-9.7431	174.77
-9.8422	160.42
-9.9571	146.34
-10.065	132.45
-10.163	118.63
-10.266	104.83
-10.39	91.138
-10.529	77.714
-10.655	64.655
-10.73	51.86
-10.74	39.065
-10.704	26.025
-10.657	12.671
-10.622	-0.89087
-10.6	-14.529
-10.574	-28.222
-10.537	-42.077
-10.507	-56.211
-10.514	-70.607
-10.581	-85.072
-10.706	-99.328
-10.857	-113.18
-10.988	-126.63
-11.075	-139.88
-11.121	-153.15
-11.152	-166.52
-11.186	-179.9
-11.215	166.82
-11.218	153.64
-11.184	140.42
-11.127	126.97
-11.074	113.26
-11.047	99.381
-11.048	85.504
-11.059	71.712
-11.062	57.953
-11.055	44.103
-11.053	30.087
-11.075	15.947
-11.127	1.8098
-11.2	-12.206
-11.275	-26.074
-11.337	-39.876
-11.393	-53.714
-11.458	-67.606
-11.548	-81.443
-11.656	-95.054
-11.754	-108.35
-11.811	-121.44
-11.817	-134.54
-11.793	-147.84
-11.77	-161.37
-11.765	-174.98
-11.769	171.43
-11.766	157.87
-11.751	144.2
-11.742	130.31
-11.766	116.25
-11.837	102.21
-11.938	88.391
-12.039	74.85
-12.111	61.474
-12.156	48.085
-12.188	34.603
-12.222	21.084
-12.254	7.6286
-12.269	-5.7406
-12.254	-19.123
-12.217	-32.659
-12.182	-46.397
-12.173	-60.241
-12.193	-74.007
-12.224	-87.55
-12.237	-100.88
-12.212	-114.16
-12.16	-127.62
-12.11	-141.32
-12.09	-155.18
-12.106	-169
-12.137	177.34
-12.156	163.8
-12.154	150.22
-12.147	136.48
-12.155	122.61
-12.188	108.74
-12.228	95.017
-12.249	81.402
-12.239	67.744
-12.209	53.888
-12.187	39.81
-12.189	25.617
-12.214	11.446
-12.249	-2.6453
-12.287	-16.697
-12.334	-30.767
-12.404	-44.837
-12.506	-58.782
-12.629	-72.441
-12.746	-85.737
-12.822	-98.762
-12.844	-111.75
-12.825	-124.92
-12.794	-138.35
-12.771	-151.98
-12.759	-165.72
-12.75	-179.55
-12.742	166.44
-12.753	152.19
-12.812	137.75
-12.936	123.36
-13.114	109.32
-13.3	95.794
-13.446	82.689
-13.532	69.743
-13.574	56.73
-13.603	43.633
-13.63	30.6
-13.639	17.76
-13.597	5.051
-13.492	-7.7759
-13.345	-20.978
-13.201	-34.636
-13.096	-48.632
-13.042	-62.754
-13.03	-76.839
-13.039	-90.847
-13.064	-104.84
-13.109	-118.85
-13.184	-132.83
-13.285	-146.63
-13.386	-160.16
-13.453	-173.49
-13.471	173.15
-13.461	159.53
-13.46	145.63
-13.492	131.63
-13.551	117.78
-13.602	104.17
-13.618	90.666
-13.6	77.062
-13.577	63.249
-13.577	49.322
-13.607	35.487
-13.643	21.873
-13.656	8.4287
-13.637	-5.0382
-13.602	-18.696
-13.583	-32.56
-13.597	-46.495
-13.642	-60.333
-13.694	-73.997
-13.733	-87.562
-13.755	-101.18
-13.778	-114.95
-13.825	-128.81
-13.9	-142.59
-13.982	-156.15
-14.042	-169.52
-14.064	177.12
-14.065	163.57
-14.076	149.83
-14.118	136.08
-14.179	122.53
-14.228	109.25
-14.234	96.098
-14.198	82.841
-14.149	69.342
-14.115	55.649
-14.107	41.921
-14.115	28.284
-14.118	14.738
-14.107	1.1792
-14.09	-12.501
-14.084	-26.325
-14.104	-40.218
-14.149	-54.062
-14.207	-67.779
-14.261	-81.372
-14.303	-94.911
-14.336	-108.45
-14.369	-121.99
-14.4	-135.47
-14.419	-148.85
-14.414	-162.2
-14.386	-175.62
-14.349	170.83
-14.32	157.17
-14.303	143.52
-14.286	129.94
-14.255	116.39
-14.211	102.75
-14.168	88.955
-14.143	75.055
-14.137	61.162
-14.137	47.342
-14.125	33.541
-14.099	19.623
-14.076	5.4787
-14.079	-8.8839
-14.128	-23.338
-14.227	-37.702
-14.36	-51.811
-14.502	-65.584
-14.628	-79.05
-14.722	-92.323
-14.783	-105.52
-14.819	-118.69
-14.834	-131.84
-14.821	-144.98
-14.776	-158.19
-14.706	-171.6
-14.633	174.73
-14.579	160.84
-14.556	146.87
-14.554	132.92
-14.559	118.99
-14.567	104.99
-14.595	90.838
-14.666	76.619
-14.79	62.545
-14.944	48.846
-15.085	35.601
-15.174	22.662
-15.195	9.7333
-15.172	-3.4192
-15.139	-16.833
-15.12	-30.368
-15.113	-43.845
-15.093	-57.192
-15.041	-70.495
-14.953	-83.937
-14.85	-97.658
-14.762	-111.66
-14.711	-125.83
-14.699	-139.99
-14.715	-154.05
-14.742	-167.97
-14.769	178.2
-14.795	164.38
-14.821	150.55
-14.853	136.68
-14.895	122.79
-14.946	108.94
-15.002	95.143
-15.052	81.418
-15.09	67.72
-15.114	53.986
-15.134	40.173
-15.159	26.304
-15.193	12.442
-15.232	-1.3562
-15.27	-15.083
-15.305	-28.765
-15.342	-42.412
-15.386	-55.988
-15.433	-69.433
-15.47	-82.727
-15.482	-95.929
-15.466	-109.16
-15.43	-122.55
-15.392	-136.16
-15.37	-149.96
-15.374	-163.87
-15.406	-177.8
-15.456	168.31
-15.513	154.47
-15.573	140.63
-15.641	126.77
-15.727	112.92
-15.834	99.19
-15.949	85.712
-16.051	72.53
-16.115	59.601
-16.128	46.813
-16.085	34.039
-15.991	21.157
-15.853	8.0409
-15.691	-5.4253
-15.538	-19.281
-15.423	-33.432
-15.363	-47.674
-15.348	-61.805
-15.35	-75.75
-15.348	-89.6
-15.339	-103.52
-15.343	-117.6
-15.386	-131.77
-15.473	-145.86
-15.586	-159.7
-15.69	-173.23
-15.753	173.42
-15.764	160.01
-15.744	146.32
-15.731	132.32
-15.752	118.18
-15.805	104.15
-15.862	90.4
-15.882	76.862
-15.85	63.289
-15.788	49.441
-15.74	35.287
-15.736	21.019
-15.773	6.8957
-15.819	-6.9608
-15.841	-20.656
-15.835	-34.424
-15.829	-48.425
-15.855	-62.622
-15.932	-76.819
-16.047	-90.814
-16.172	-104.53
-16.279	-118.06
-16.362	-131.58
-16.438	-145.19
-16.528	-158.89
-16.642	-172.52
-16.771	174.06
-16.89	160.95
-16.972	148.08
-17	135.31
-16.974	122.48
-16.908	109.46
-16.816	96.191
-16.717	82.643
-16.63	68.837
-16.573	54.859
-16.552	40.847
-16.559	26.941
-16.571	13.193
-16.567	-0.49237
-16.55	-14.298
-16.546	-28.331
-16.589	-42.493
-16.693	-56.499
-16.832	-70.039
-16.943	-83.014
-16.969	-95.666
-16.895	-108.45
-16.762	-121.73
-16.63	-135.56
-16.538	-149.71
-16.492	-163.95
-16.476	-178.1
-16.472	167.85
-16.47	153.84
-16.474	139.85
-16.487	125.89
-16.509	111.98
-16.533	98.138
-16.556	84.32
-16.578	70.487
-16.602	56.612
-16.631	42.688
-16.665	28.708
-16.706	14.649
-16.759	0.48435
-16.838	-13.784
-16.955	-28.082
-17.118	-42.249
-17.318	-56.074
-17.521	-69.394
-17.678	-82.226
-17.756	-94.809
-17.755	-107.48
-17.711	-120.41
-17.661	-133.56
-17.615	-146.72
-17.548	-159.79
-17.431	-172.93
-17.27	173.57
-17.111	159.48
-17.016	144.89
-17.024	130.11
-17.132	115.58
-17.295	101.62
-17.444	88.248
-17.53	75.182
-17.553	62.007
-17.554	48.49
-17.585	34.717
-17.664	20.999
-17.763	7.6526
-17.823	-5.2497
-17.795	-17.979
-17.676	-30.968
-17.514	-44.5
-17.368	-58.541
-17.273	-72.825
-17.225	-87.065
-17.198	-101.12
-17.167	-115.02
-17.126	-128.9
-17.082	-142.82
-17.047	-156.8
-17.025	-170.8
-17.016	175.17
-17.02	161.11
-17.039	147.01
-17.078	132.88
-17.137	118.73
-17.215	104.6
-17.309	90.525
-17.41	76.525
-17.507	62.601
-17.593	48.695
-17.67	34.728
-17.753	20.676
-17.858	6.6246
-17.986	-7.2549
-18.119	-20.817
-18.228	-34.039
-18.291	-47.032
-18.306	-59.946
-18.28	-72.88
-18.222	-85.884
-18.13	-99.021
-18.012	-112.42
-17.89	-126.22
-17.801	-140.47
-17.784	-155.05
-17.86	-169.69
-18.023	175.91
-18.237	162
-18.448	148.6
-18.612	135.49
-18.727	122.33
-18.834	108.92
-18.979	95.404
-19.171	82.188
-19.359	69.654
-19.45	57.799
-19.375	46.091
-19.15	33.822
-18.861	20.618
-18.597	6.6009
-18.4	-7.8474
-18.265	-22.39
-18.167	-36.897
-18.096	-51.41
-18.06	-65.965
-18.076	-80.476
-18.142	-94.752
-18.23	-108.65
-18.3	-122.22
-18.329	-135.72
-18.334	-149.42
-18.357	-163.4
-18.43	-177.47
-18.549	168.69
-18.668	155.27
-18.732	142.17
-18.716	129.02
-18.648	115.5
-18.585	101.55
-18.561	87.431
-18.569	73.473
-18.565	59.813
-18.507	46.284
-18.394	32.547
-18.267	18.361
-18.182	3.7569
-18.173	-11.015
-18.246	-25.643
-18.373	-39.913
-18.52	-53.788
-18.664	-67.373
-18.801	-80.782
-18.937	-94.043
-19.064	-107.11
-19.161	-120.02
-19.21	-132.93
-19.219	-146.09
-19.226	-159.6
-19.269	-173.33
-19.355	173.06
-19.445	159.84
-19.479	146.97
-19.424	134.13
-19.297	120.94
-19.149	107.28
-19.019	93.289
-18.915	79.155
-18.827	64.951
-18.758	50.624
-18.73	36.162
-18.769	21.735
-18.872	7.6571
-18.996	-5.8173
-19.069	-18.726
-19.039	-31.486
-18.917	-44.673
-18.772	-58.626
-18.682	-73.264
-18.693	-88.205
-18.803	-102.97
-18.957	-117.21
-19.079	-130.92
-19.119	-144.47
-19.092	-158.29
-19.054	-172.54
-19.057	172.98
-19.105	158.64
-19.158	144.7
-19.165	131.06
-19.113	117.41
-19.033	103.5
-18.966	89.332
-18.933	75.094
-18.923	60.904
-18.92	46.696
-18.936	32.305
-19.007	17.685
-19.168	3.0353
-19.42	-11.281
-19.721	-24.948
-19.996	-37.942
-20.188	-50.612
-20.298	-63.463
-20.384	-76.762
-20.508	-90.359
-20.688	-103.81
-20.876	-116.69
-20.983	-128.94
-20.939	-141
-20.746	-153.54
-20.476	-166.96
-20.214	178.74
-20.014	163.84
-19.896	148.65
-19.861	133.38
-19.914	118.23
-20.052	103.42
-20.254	89.218
-20.47	75.771
-20.643	62.988
-20.738	50.55
-20.759	38.124
-20.734	25.556
-20.675	12.84
-20.58	-0.048192
-20.448	-13.256
-20.303	-26.944
-20.188	-41.099
-20.133	-55.47
-20.125	-69.732
-20.122	-83.726
-20.076	-97.593
-19.977	-111.69
-19.869	-126.3
-19.818	-141.39
-19.869	-156.61
-20.021	-171.47
-20.215	174.4
-20.367	160.97
-20.421	147.74
-20.402	134.11
-20.397	119.83
-20.487	105.17
-20.693	90.755
-20.951	77.062
-21.159	64.113
-21.248	51.368
-21.241	38.156
-21.227	24.241
-21.28	9.9465
-21.404	-4.1719
-21.537	-17.749
-21.597	-30.889
-21.547	-44.105
-21.433	-57.883
-21.34	-72.291
-21.329	-86.974
-21.408	-101.43
-21.529	-115.3
-21.628	-128.6
-21.665	-141.62
-21.652	-154.74
-21.624	-168.09
-21.614	178.35
-21.631	164.69
-21.675	150.93
-21.759	137.07
-21.9	123.23
-22.099	109.66
-22.313	96.648
-22.467	84.198
-22.494	71.903
-22.395	59.141
-22.239	45.507
-22.109	31.052
-22.059	16.159
-22.09	1.2921
-22.165	-13.195
-22.23	-27.168
-22.229	-40.763
-22.139	-54.325
-21.978	-68.236
-21.8	-82.725
-21.669	-97.765
-21.632	-113.1
-21.704	-128.38
-21.871	-143.29
-22.092	-157.66
-22.324	-171.5
-22.53	175
-22.704	161.52
-22.879	147.83
-23.1	133.99
-23.388	120.34
-23.707	107.29
-23.961	94.931
-24.071	82.771
-24.05	70.041
-24.001	56.379
-24.028	42.128
-24.154	28.048
-24.298	14.745
-24.334	2.145
-24.196	-10.569
-23.956	-24.264
-23.767	-39.086
-23.74	-54.434
-23.897	-69.424
-24.162	-83.357
-24.408	-96.1
-24.541	-108.2
-24.573	-120.44
-24.602	-133.1
-24.698	-145.77
-24.833	-157.81
-24.886	-169.03
-24.751	179.88
-24.45	167.88
-24.122	154.48
-23.897	140.05
-23.813	125.37
-23.811	111.1
-23.783	97.325
-23.664	83.507
-23.492	69.034
-23.365	53.793
-23.358	38.225
-23.473	22.982
-23.641	8.5261
-23.766	-5.1599
-23.785	-18.582
-23.721	-32.351
-23.649	-46.727
-23.642	-61.54
-23.725	-76.409
-23.877	-91.003
-24.056	-105.21
-24.232	-119.15
-24.405	-132.94
-24.586	-146.55
-24.757	-159.77
-24.856	-172.58
-24.824	174.62
-24.674	161.16
-24.498	146.64
-24.407	131.22
-24.464	115.55
-24.64	100.37
-24.838	86.007
-24.968	72.158
-25.016	58.182
-25.057	43.66
-25.186	28.737
-25.448	13.971
-25.818	-0.028262
-26.214	-12.898
-26.529	-24.726
-26.689	-36.042
-26.692	-47.553
-26.596	-59.759
-26.486	-72.773
-26.426	-86.365
-26.443	-100.11
-26.512	-113.59
-26.57	-126.6
-26.555	-139.32
-26.444	-152.15
-26.271	-165.48
-26.102	-179.33
-25.982	166.58
-25.905	152.65
-25.821	139.1
-25.664	125.75
-25.42	112.04
-25.149	97.493
-24.957	82.024
-24.934	66.069
-25.109	50.379
-25.423	35.693
-25.743	22.286
-25.943	9.658
-26.009	-3.1316
-26.038	-16.63
-26.137	-30.573
-26.317	-44.245
-26.48	-57.194
-26.497	-69.779
-26.343	-83.018
-26.134	-97.656
-26.024	-113.56
-26.102	-129.96
-26.356	-145.94
-26.689	-160.88
-26.966	-174.86
-27.119	171.36
-27.212	156.96
-27.389	141.88
-27.753	126.8
-28.293	112.82
-28.862	100.68
-29.256	90.051
-29.397	79.581
-29.406	68.217
-29.452	56.141
-29.564	44.275
-29.618	33.138
-29.473	22.097
-29.151	9.8793
-28.835	-4.0574
-28.693	-19.072
-28.762	-33.908
-28.923	-47.469
-28.945	-59.645
-28.668	-71.746
-28.174	-85.447
-27.708	-101.26
-27.471	-118.45
-27.547	-135.76
-27.898	-151.86
-28.362	-165.72
-28.676	-177.34
-28.66	171.81
-28.384	159.96
-28.07	146.49
-27.889	132
-27.88	117.47
-27.97	103.63
-28.041	90.595
-28.002	77.911
-27.843	64.859
-27.625	50.954
-27.427	36.114
-27.308	20.529
-27.3	4.5146
-27.412	-11.551
-27.619	-27.293
-27.862	-42.539
-28.083	-57.457
-28.274	-72.455
-28.491	-87.817
-28.814	-103.38
-29.289	-118.55
-29.875	-132.53
-30.437	-144.89
-30.809	-156.07
-30.931	-167.31
-30.92	-179.7
-30.962	166.7
-31.175	152.72
-31.552	139.46
-31.961	127.73
-32.194	117.44
-32.116	107.35
-31.795	95.994
-31.418	82.836
-31.149	68.269
-31.067	53.097
-31.177	38.183
-31.416	24.284
-31.659	11.853
-31.735	0.66889
-31.531	-10.398
-31.105	-22.808
-30.655	-37.322
-30.393	-53.686
-30.464	-70.958
-30.919	-87.814
-31.686	-102.74
-32.514	-114.68
-33.052	-124.2
-33.155	-133.71
-33.047	-145.11
-33.019	-158
-33.13	-170.76
-33.169	177.7
-32.855	166.49
-32.18	153.31
-31.441	136.96
-30.936	118.16
-30.802	98.599
-31.003	80.094
-31.334	64.03
-31.458	50.382
-31.162	37.022
-30.618	21.507
-30.198	3.3371
-30.177	-16.387
-30.689	-35.972
-31.735	-53.367
-33.107	-66.223
-34.226	-73.45
-34.489	-78.503
-34.126	-86.684
-33.803	-98.754
-33.845	-112.37
-34.19	-125.13
-34.536	-136.02
-34.581	-146.17
-34.318	-157.87
-34.013	-172.25
-33.902	171.31
-34.064	154.06
-34.453	137.04
-34.971	120.86
-35.514	105.72
-35.99	91.555
-36.332	78.018
-36.526	64.504
-36.649	50.441
-36.859	35.831
-37.304	21.679
-37.979	10.031
-38.499	2.8776
-38.167	-1.5564
-36.929	-9.4192
-35.55	-23.563
-34.627	-42.217
-34.382	-62.705
-34.847	-82.473
-35.889	-98.735
-37.01	-108.82
-37.283	-114.15
-36.501	-122.16
-35.534	-136.3
-35.012	-154.25
-35.061	-172.76
-35.499	170.8
-35.881	157.46
-35.778	145.03
-35.296	129.74
-34.947	110.3
-35.154	88.012
-36.141	65.187
-37.992	44.83
-40.49	31.477
-42.409	28.66
-42.341	25.972
-41.687	11.789
-41.97	-10.813
-43.776	-36.954
-47.91	-62.083
-57.29	-62.215
-53.447	9.4544
-47.626	-11.468
-45.497	-44.081
-45.233	-79.805
-46.349	-117.23
-48.863	-155.88
-53.362	164.56
-63.126	124.65
-65.148	-96.82
-56.627	-136.87
-53.998	-177.32
-53.501	141.34
-54.353	97.183
-55.862	46.551
-56.464	-11.045
-55.196	-63.251
-53.375	-102.47
-51.888	-132.45
-50.885	-157.47
-50.445	179.9
-50.759	158.78
-52.167	140.34
-55.136	130.3
-58.491	148.66
-55.156	175.62
-50.729	169.49
-47.934	151.73
-46.369	130.62
-45.71	108.88
-45.728	88.006
-46.185	69.153
-46.734	52.988
-46.958	38.56
-46.687	23.079
-46.176	4.5363
-45.796	-16.543
-45.782	-37.963
-46.176	-56.616
-46.618	-69.171
-46.216	-75.944
-44.614	-84.399
-42.708	-99.346
-41.281	-119.1
-40.613	-140.77
-40.762	-161.8
-41.661	-179.51
-42.941	169.25
-43.647	165.16
-43.078	161.07
-41.99	150.51
-41.224	134.76
-40.991	117.07
-41.149	99.77
-41.401	83.708
-41.478	67.999
-41.374	51.04
-41.299	32.381
-41.456	13.246
-41.882	-4.1022
-42.332	-17.349
-42.269	-26.412
-41.407	-35.12
-40.16	-46.829
-39.043	-61.03
-38.222	-75.637
-37.573	-89.155
-36.861	-101.67
-35.992	-114.75
-35.129	-129.82
-34.546	-146.92
-34.441	-164.91
-34.896	178.02
-35.821	164.28
-36.777	156.19
-36.947	152.55
-36.085	146.91
-34.902	135.62
-33.985	120.17
-33.495	103.07
-33.361	86.238
-33.39	70.745
-33.353	56.549
-33.12	42.493
-32.765	27.28
-32.491	10.549
-32.486	-6.9895
-32.837	-23.896
-33.472	-38.273
-34.036	-48.59
-33.963	-56.172
-33.121	-65.768
-32.041	-80.341
-31.247	-99.216
-30.996	-120.5
-31.388	-142.21
-32.422	-162.16
-33.921	-177.51
-35.233	174.15
-35.368	169.45
-34.472	160.08
-33.557	144.35
-33.154	125.39
-33.328	106.44
-33.91	90.143
-34.476	77.935
-34.54	68.234
-34.102	57.278
-33.631	43.651
-33.473	29.008
-33.61	15.921
-33.658	5.7404
-33.179	-3.5847
-32.273	-15.923
-31.447	-32.599
-31.091	-52.344
-31.377	-73.087
-32.309	-92.556
-33.697	-108.35
-35.035	-119.03
-35.7	-126.82
-35.735	-136.68
-35.772	-149.83
-36.188	-163.26
-36.764	-172.93
-36.664	-177.93
-35.387	175.75
-33.632	163.27
-32.132	146.02
-31.121	126.9
-30.564	108.1
-30.305	90.938
-30.13	75.7
-29.88	61.583
-29.565	47.401
-29.313	32.652
-29.229	17.726
-29.306	3.3227
-29.439	-10.292
-29.528	-23.654
-29.585	-37.683
-29.733	-52.804
-30.091	-68.572
-30.67	-84.017
-31.344	-98.324
-31.904	-111.55
-32.214	-124.82
-32.333	-139.35
-32.424	-155.21
-32.569	-171.5
-32.71	172.79
-32.705	157.89
-32.483	143.03
-32.154	127.26
-31.933	110.6
-31.983	94.068
-32.318	79.199
-32.749	67.321
-32.914	58.161
-32.62	49.083
-32.115	37.551
-31.796	23.465
-31.894	8.4184
-32.402	-5.5364
-33.074	-16.848
-33.511	-25.863
-33.524	-35.2
-33.349	-47.051
-33.314	-61.172
-33.537	-75.885
-33.887	-89.603
-34.083	-101.94
-33.916	-114.11
-33.435	-127.66
-32.843	-142.97
-32.285	-159.31
-31.785	-175.83
-31.317	167.81
-30.889	151.54
-30.563	135.39
-30.395	119.81
-30.359	105.5
-30.327	92.795
-30.14	81.057
-29.779	68.871
-29.407	55.26
-29.228	40.473
-29.337	25.676
-29.651	12.204
-29.921	0.57736
-29.891	-10.43
-29.582	-23.051
-29.276	-38.302
-29.231	-55.39
-29.536	-72.621
-30.074	-88.219
-30.524	-101.34
-30.543	-113.48
-30.173	-127.55
-29.807	-144.7
-29.794	-163.82
-30.297	177.22
-31.271	161.1
-32.301	150.3
-32.609	143.59
-32.029	134.61
-31.325	120.11
-31.128	101.9
-31.668	83.098
-32.903	67.194
-34.329	57.754
-34.847	53.687
-34.176	46.131
-33.379	30.996
-33.215	11.092
-33.905	-9.6972
-35.398	-27.244
-37.149	-36.709
-37.706	-38.171
-36.558	-43.238
-35.114	-56.909
-34.199	-75.055
-33.893	-93.575
-33.981	-109.84
-34.092	-123.01
-33.92	-134.58
-33.535	-146.92
-33.262	-160.59
-33.313	-174.05
-33.595	174.88
-33.673	167.06
-33.139	159.74
-32.187	149.06
-31.331	134.22
-30.894	116.78
-30.956	98.693
-31.428	81.699
-32.085	66.961
